File: example_project/raw_outputs/20240424_ZQ_GM0016_HL03_E11_CV50.DTA
EXPLAIN
TAG	CV
TITLE	LABEL	Cyclic Voltammetry	Test &Identifier
DATE	LABEL	4/24/2024	Date
TIME	LABEL	19:06:35	Time
NOTES	NOTES	1	&Notes...

PSTAT	PSTAT	REF600P-43058	Potentiostat
VINIT	POTEN	0.00000E+000	T	Initial &E (V)
VLIMIT1	POTEN	-6.00000E-001	F	Scan Limit &1 (V)
VLIMIT2	POTEN	8.00000E-001	F	Scan Limit &2 (V)
VFINAL	POTEN	0.00000E+000	T	Final &E (V)
SCANRATE	QUANT	4.99999E+001	&Scan Rate (mV/s)
STEPSIZE	QUANT	1.00000E+001	St&ep Size (mV)
CYCLES	IQUANT	4	C&ycles (#)
IMODE	SELECTOR	0	I/E Range &Mode
IRANGE	QUANT	1.00000E-005	&Max Current (mA)
AREA	QUANT	1.00000E+000	Electrode &Area (cm^2)
ELECTRODETYPE	SELECTOR	0	Electrode Type
STRIPPING	TOGGLE	F	Used for Stripping
POLARITY	TOGGLE	F	Signal Polarity
CONDIT	TWOPARAM	F	1.50000E+001	0.00000E+000	Conditionin&g	Time(s)	E(V)
DELAY	TWOPARAM	T	1.00000E+001	0.00000E+000	Init. De&lay	Time(s)	Stab.(mV/s)
EQDELAY	QUANT	1.00000E+001	Equil. &Time (s)
IRCOMP	SELECTOR	0	IRCom&p
PFCOR	QUANT	5.00000E+001	PF Corr. (ohm)
SAMPLINGMODE	SELECTOR	1	Sampling &Mode
OCVCURVE	TABLE	39
	Pt	T	Vf	Vm	Ach	Over	Temp
	#	s	V vs. Ref.	V	V	bits	deg C
	0	0.258333	-1.23083E-002	-1.23083E-002	2.35326E-004	..........a	-327.66
	1	0.516667	-1.23086E-002	-1.23211E-002	2.43726E-004	..........a	-327.66
	2	0.775	-1.23100E-002	-1.23331E-002	2.45526E-004	..........a	-327.66
	3	1.03333	-1.23143E-002	-1.23452E-002	2.51526E-004	..........a	-327.66
	4	1.29167	-1.23219E-002	-1.23564E-002	2.35859E-004	..........a	-327.66
	5	1.55	-1.23321E-002	-1.23690E-002	2.51126E-004	..........a	-327.66
	6	1.80833	-1.23437E-002	-1.23819E-002	2.46126E-004	..........a	-327.66
	7	2.06667	-1.23558E-002	-1.23921E-002	2.30192E-004	..........a	-327.66
	8	2.325	-1.23679E-002	-1.24031E-002	2.50792E-004	..........a	-327.66
	9	2.58333	-1.23798E-002	-1.24171E-002	2.44326E-004	..........a	-327.66
	10	2.84167	-1.23916E-002	-1.24282E-002	2.53926E-004	..........a	-327.66
	11	3.1	-1.24033E-002	-1.24390E-002	2.41526E-004	..........a	-327.66
	12	3.35833	-1.24151E-002	-1.24480E-002	2.38992E-004	..........a	-327.66
	13	3.61667	-1.24266E-002	-1.24600E-002	2.44126E-004	..........a	-327.66
	14	3.875	-1.24375E-002	-1.24692E-002	2.38726E-004	..........a	-327.66
	15	4.13333	-1.24481E-002	-1.24791E-002	2.38259E-004	..........a	-327.66
	16	4.39167	-1.24584E-002	-1.24886E-002	2.51792E-004	..........a	-327.66
	17	4.65	-1.24685E-002	-1.25021E-002	2.54992E-004	..........a	-327.66
	18	4.90833	-1.24787E-002	-1.25114E-002	2.46859E-004	..........a	-327.66
	19	5.16667	-1.24892E-002	-1.25218E-002	2.44526E-004	..........a	-327.66
	20	5.425	-1.24999E-002	-1.25317E-002	2.46726E-004	..........a	-327.66
	21	5.68333	-1.25105E-002	-1.25419E-002	2.37859E-004	..........a	-327.66
	22	5.94167	-1.25208E-002	-1.25520E-002	2.48259E-004	..........a	-327.66
	23	6.2	-1.25310E-002	-1.25602E-002	2.34392E-004	..........a	-327.66
	24	6.45833	-1.25408E-002	-1.25673E-002	2.38526E-004	..........a	-327.66
	25	6.71667	-1.25502E-002	-1.25775E-002	2.34459E-004	..........a	-327.66
	26	6.975	-1.25591E-002	-1.25866E-002	2.50992E-004	..........a	-327.66
	27	7.23333	-1.25679E-002	-1.25982E-002	2.37659E-004	..........a	-327.66
	28	7.49167	-1.25771E-002	-1.26070E-002	2.45259E-004	..........a	-327.66
	29	7.75	-1.25866E-002	-1.26158E-002	2.45726E-004	..........a	-327.66
	30	8.00833	-1.25964E-002	-1.26247E-002	2.40859E-004	..........a	-327.66
	31	8.26667	-1.26059E-002	-1.26339E-002	2.41792E-004	..........a	-327.66
	32	8.525	-1.26151E-002	-1.26431E-002	2.53526E-004	..........a	-327.66
	33	8.78333	-1.26242E-002	-1.26520E-002	2.40859E-004	..........a	-327.66
	34	9.04167	-1.26332E-002	-1.26598E-002	2.36259E-004	..........a	-327.66
	35	9.3	-1.26422E-002	-1.26702E-002	2.42059E-004	..........a	-327.66
	36	9.5583	-1.26511E-002	-1.26792E-002	2.47592E-004	..........a	-327.66
	37	9.8167	-1.26600E-002	-1.26875E-002	2.45259E-004	..........a	-327.66
	38	10.075	-1.26691E-002	-1.26955E-002	2.38659E-004	..........a	-327.66
EOC	QUANT	-0.0126691	Open Circuit (V)
PSTATMODEL	IQUANT	7	Pstat Model
PSTATSECTION	LABEL	REF600P-43058	Pstat Section
PSTATSERIALNO	LABEL	43058	Pstat Serial Number
CTRLMODE	IQUANT	1	Control Mode
ELECTROMETER	IQUANT	0	RE=0 or CS=1
IESTAB	IQUANT	2	I/E Stability
CASPEED	IQUANT	4	Control Amp Speed
CONVENTION	IQUANT	1	Current Convention
ICHRANGE	IQUANT	2	Ich Range
ICHRANGEMODE	TOGGLE	F	Ich Auto Range
ICHOFFSETENABLE	TOGGLE	F	Ich Offset Enable
ICHOFFSET	QUANT	0	Ich Offset (V)
ICHFILTER	IQUANT	2	Ich Filter
VCHRANGE	IQUANT	2	Vch Range
VCHRANGEMODE	TOGGLE	F	Vch Auto Range
VCHOFFSETENABLE	TOGGLE	F	Vch Offset Enable
VCHOFFSET	QUANT	0	Vch Offset (V)
VCHFILTER	IQUANT	2	Vch Filter
ACHRANGE	IQUANT	2	Ach Range
ACHOFFSETENABLE	TOGGLE	F	Ach Offset Enable
ACHOFFSET	QUANT	0	Ach Offset (V)
ACHFILTER	IQUANT	1	Ach Filter
IERANGELOWERLIMIT	IQUANT	1	I/E Range Lower Limit
IERANGEMODE	TOGGLE	T	I/E AutoRange
IERANGE	IQUANT	4	I/E Range
POSFEEDENABLE	TOGGLE	F	Positive Feedback IR Comp
POSFEEDRESISTANCE	QUANT	0	Positive Feedback Resistance (ohm)
ACHSELECT	IQUANT	4	Ach Select
SENSECABLEID	IQUANT	7	Sense Cable ID
PWRCABLEID	IQUANT	7	Power Cable ID
DCCALDATE	LABEL	3/22/2024	DC Calibration Date
ACCALDATE	LABEL	3/22/2024	AC Calibration Date
THERMOSELECT	IQUANT	1	Thermo Select
FRAMEWORKVERSION	LABEL	7.8.4	Framework Version
INSTRUMENTVERSION	LABEL	4.42	Instrument Version
CURVE1	TABLE
	Pt	T	Vf	Im	Vu	Sig	Ach	IERange	Over	Temp
	#	s	V vs. Ref.	A	V	V	V	#	bits	deg C
	0	0.2	-1.25664E-002	3.30779E-010	0.00000E+000	-1.26500E-002	9.96892E-004	5	..........a	-327.66
	2	0.6	-3.25202E-002	-5.18185E-009	0.00000E+000	-3.26500E-002	1.01629E-003	5	..........a	-327.66
	4	1	-5.25666E-002	-8.87702E-009	0.00000E+000	-5.26500E-002	1.01289E-003	5	..........a	-327.66
	6	1.4	-7.25161E-002	-1.20888E-008	0.00000E+000	-7.26500E-002	9.94092E-004	5	..........a	-327.66
	8	1.8	-9.25662E-002	-1.50355E-008	0.00000E+000	-9.26500E-002	1.00759E-003	5	..........a	-327.66
	10	2.2	-1.12489E-001	-1.78766E-008	0.00000E+000	-1.12650E-001	1.01429E-003	5	..........a	-327.66
	12	2.6	-1.32592E-001	-2.06568E-008	0.00000E+000	-1.32650E-001	1.02449E-003	5	..........a	-327.66
	14	3	-1.52533E-001	-2.34177E-008	0.00000E+000	-1.52650E-001	1.00469E-003	5	..........a	-327.66
	16	3.4	-1.72584E-001	-2.61180E-008	0.00000E+000	-1.72650E-001	1.01959E-003	5	..........a	-327.66
	18	3.8	-1.92566E-001	-2.88011E-008	0.00000E+000	-1.92650E-001	1.00359E-003	5	..........a	-327.66
	20	4.2	-2.12527E-001	-3.15002E-008	0.00000E+000	-2.12650E-001	1.01159E-003	5	..........a	-327.66
	22	4.6	-2.32474E-001	-3.41902E-008	0.00000E+000	-2.32650E-001	9.97092E-004	5	..........a	-327.66
	24	5	-2.52565E-001	-3.69774E-008	0.00000E+000	-2.52650E-001	1.02059E-003	5	..........a	-327.66
	26	5.4	-2.72508E-001	-3.98414E-008	0.00000E+000	-2.72650E-001	1.01329E-003	5	..........a	-327.66
	28	5.8	-2.92501E-001	-4.29053E-008	0.00000E+000	-2.92650E-001	1.01429E-003	5	..........a	-327.66
	30	6.2	-3.12450E-001	-4.61097E-008	0.00000E+000	-3.12650E-001	1.01629E-003	5	..........a	-327.66
	32	6.6	-3.32549E-001	-4.94945E-008	0.00000E+000	-3.32650E-001	9.99192E-004	5	..........a	-327.66
	34	7	-3.52487E-001	-5.30773E-008	0.00000E+000	-3.52650E-001	1.02039E-003	5	..........a	-327.66
	36	7.4	-3.72517E-001	-5.68763E-008	0.00000E+000	-3.72650E-001	1.00179E-003	5	..........a	-327.66
	38	7.8	-3.92454E-001	-6.08062E-008	0.00000E+000	-3.92650E-001	1.02149E-003	5	..........a	-327.66
	40	8.2	-4.12509E-001	-6.49027E-008	0.00000E+000	-4.12650E-001	9.98992E-004	5	..........a	-327.66
	42	8.6	-4.32444E-001	-6.91590E-008	0.00000E+000	-4.32650E-001	1.01389E-003	5	..........a	-327.66
	44	9	-4.52515E-001	-7.35620E-008	0.00000E+000	-4.52650E-001	1.01379E-003	5	..........a	-327.66
	46	9.4	-4.72395E-001	-7.80784E-008	0.00000E+000	-4.72650E-001	1.01629E-003	5	..........a	-327.66
	48	9.8	-4.92517E-001	-8.26869E-008	0.00000E+000	-4.92650E-001	1.01619E-003	5	..........a	-327.66
	50	10.2	-5.12443E-001	-8.72463E-008	0.00000E+000	-5.12650E-001	1.00849E-003	5	..........a	-327.66
	52	10.6	-5.32503E-001	-9.17796E-008	0.00000E+000	-5.32650E-001	1.00379E-003	5	..........a	-327.66
	54	11	-5.52467E-001	-9.62448E-008	0.00000E+000	-5.52650E-001	1.02279E-003	5	..........a	-327.66
	56	11.4	-5.72476E-001	-1.00650E-007	0.00000E+000	-5.72650E-001	1.02059E-003	5	..........a	-327.66
	58	11.8	-5.92435E-001	-1.05066E-007	0.00000E+000	-5.92650E-001	1.01129E-003	5	..........a	-327.66
	60	12.2	-5.92449E-001	-9.48168E-008	0.00000E+000	-5.92650E-001	1.01239E-003	5	..........a	-327.66
	62	12.6	-5.72470E-001	-7.97340E-008	0.00000E+000	-5.72650E-001	1.01419E-003	5	..........a	-327.66
	64	13	-5.52474E-001	-6.92258E-008	0.00000E+000	-5.52650E-001	1.01369E-003	5	..........a	-327.66
	66	13.4	-5.32532E-001	-6.07913E-008	0.00000E+000	-5.32650E-001	9.85292E-004	5	..........a	-327.66
	68	13.8	-5.12455E-001	-5.36262E-008	0.00000E+000	-5.12650E-001	1.01929E-003	5	..........a	-327.66
	70	14.2	-4.92548E-001	-4.73357E-008	0.00000E+000	-4.92650E-001	1.01899E-003	5	..........a	-327.66
	72	14.6	-4.72441E-001	-4.17130E-008	0.00000E+000	-4.72650E-001	9.87692E-004	5	..........a	-327.66
	74	15	-4.52493E-001	-3.65579E-008	0.00000E+000	-4.52650E-001	1.00029E-003	5	..........a	-327.66
	76	15.4	-4.32450E-001	-3.18734E-008	0.00000E+000	-4.32650E-001	1.02769E-003	5	..........a	-327.66
	78	15.8	-4.12549E-001	-2.75526E-008	0.00000E+000	-4.12650E-001	9.98092E-004	5	..........a	-327.66
	80	16.2	-3.92454E-001	-2.35343E-008	0.00000E+000	-3.92650E-001	1.01179E-003	5	..........a	-327.66
	82	16.6	-3.72535E-001	-1.98013E-008	0.00000E+000	-3.72650E-001	1.00819E-003	5	..........a	-327.66
	84	17	-3.52501E-001	-1.63104E-008	0.00000E+000	-3.52650E-001	1.00269E-003	5	..........a	-327.66
	86	17.4	-3.32586E-001	-1.30409E-008	0.00000E+000	-3.32650E-001	1.00889E-003	5	..........a	-327.66
	88	17.8	-3.12453E-001	-9.91624E-009	0.00000E+000	-3.12650E-001	1.01899E-003	5	..........a	-327.66
	90	18.2	-2.92530E-001	-7.00391E-009	0.00000E+000	-2.92650E-001	1.02749E-003	5	..........a	-327.66
	92	18.6	-2.72532E-001	-4.24476E-009	0.00000E+000	-2.72650E-001	1.00879E-003	5	..........a	-327.66
	94	19	-2.52583E-001	-1.60706E-009	0.00000E+000	-2.52650E-001	1.02639E-003	5	..........a	-327.66
	96	19.4	-2.32476E-001	9.29961E-010	0.00000E+000	-2.32650E-001	1.01039E-003	5	..........a	-327.66
	98	19.8	-2.12588E-001	3.38268E-009	0.00000E+000	-2.12650E-001	1.02509E-003	5	..........a	-327.66
	100	20.2	-1.92571E-001	5.73884E-009	0.00000E+000	-1.92650E-001	1.02379E-003	5	..........a	-327.66
	102	20.6	-1.72638E-001	7.98364E-009	0.00000E+000	-1.72650E-001	1.02739E-003	5	..........a	-327.66
	104	21	-1.52550E-001	1.01537E-008	0.00000E+000	-1.52650E-001	9.80992E-004	5	..........a	-327.66
	106	21.4	-1.32596E-001	1.23239E-008	0.00000E+000	-1.32650E-001	1.01869E-003	5	..........a	-327.66
	108	21.8	-1.12484E-001	1.43779E-008	0.00000E+000	-1.12650E-001	1.01929E-003	5	..........a	-327.66
	110	22.2	-9.26116E-002	1.64328E-008	0.00000E+000	-9.26500E-002	1.01219E-003	5	..........a	-327.66
	112	22.6	-7.25377E-002	1.84542E-008	0.00000E+000	-7.26500E-002	1.00539E-003	5	..........a	-327.66
	114	23	-5.26479E-002	2.04448E-008	0.00000E+000	-5.26500E-002	1.00539E-003	5	..........a	-327.66
	116	23.4	-3.24824E-002	2.25031E-008	0.00000E+000	-3.26500E-002	1.01329E-003	5	..........a	-327.66
	118	23.8	-1.25924E-002	2.45250E-008	0.00000E+000	-1.26500E-002	9.97292E-004	5	..........a	-327.66
	120	24.2	7.47774E-003	2.66194E-008	0.00000E+000	7.35001E-003	1.01369E-003	5	..........a	-327.66
	122	24.6	2.73611E-002	2.87403E-008	0.00000E+000	2.73500E-002	9.89992E-004	5	..........a	-327.66
	124	25	4.75194E-002	3.08034E-008	0.00000E+000	4.73500E-002	1.01089E-003	5	..........a	-327.66
	126	25.4	6.74148E-002	3.29290E-008	0.00000E+000	6.73500E-002	1.01599E-003	5	..........a	-327.66
	128	25.8	8.74468E-002	3.50613E-008	0.00000E+000	8.73500E-002	1.00299E-003	5	..........a	-327.66
	130	26.2	1.07401E-001	3.72191E-008	0.00000E+000	1.07350E-001	1.00649E-003	5	..........a	-327.66
	132	26.6	1.27506E-001	3.94455E-008	0.00000E+000	1.27350E-001	1.02969E-003	5	..........a	-327.66
	134	27	1.47386E-001	4.17695E-008	0.00000E+000	1.47350E-001	1.00649E-003	5	..........a	-327.66
	136	27.4	1.67521E-001	4.42571E-008	0.00000E+000	1.67350E-001	1.01729E-003	5	..........a	-327.66
	138	27.8	1.87380E-001	4.73391E-008	0.00000E+000	1.87350E-001	1.01749E-003	5	..........a	-327.66
	140	28.2	2.07455E-001	5.01890E-008	0.00000E+000	2.07350E-001	1.01559E-003	5	..........a	-327.66
	142	28.6	2.27313E-001	5.24354E-008	0.00000E+000	2.27350E-001	1.03089E-003	5	..........a	-327.66
	144	29	2.47488E-001	5.48857E-008	0.00000E+000	2.47350E-001	1.02369E-003	5	..........a	-327.66
	146	29.4	2.67367E-001	5.77386E-008	0.00000E+000	2.67350E-001	1.02149E-003	5	..........a	-327.66
	148	29.8	2.87408E-001	6.10136E-008	0.00000E+000	2.87350E-001	1.00179E-003	5	..........a	-327.66
	150	30.2	3.07283E-001	6.48723E-008	0.00000E+000	3.07350E-001	1.01529E-003	5	..........a	-327.66
	152	30.6	3.27443E-001	6.92412E-008	0.00000E+000	3.27350E-001	1.00109E-003	5	..........a	-327.66
	154	31	3.47316E-001	7.40819E-008	0.00000E+000	3.47350E-001	9.96792E-004	5	..........a	-327.66
	156	31.4	3.67392E-001	7.93263E-008	0.00000E+000	3.67350E-001	1.01699E-003	5	..........a	-327.66
	158	31.8	3.87256E-001	8.49171E-008	0.00000E+000	3.87350E-001	1.03099E-003	5	..........a	-327.66
	160	32.2	4.07433E-001	9.06695E-008	0.00000E+000	4.07350E-001	1.01269E-003	5	..........a	-327.66
	162	32.6	4.27241E-001	9.65927E-008	0.00000E+000	4.27350E-001	1.00379E-003	5	..........a	-327.66
	164	33	4.47349E-001	1.02674E-007	0.00000E+000	4.47350E-001	1.00019E-003	5	..........a	-327.66
	166	33.4	4.67284E-001	1.08885E-007	0.00000E+000	4.67350E-001	1.02049E-003	5	..........a	-327.66
	168	33.8	4.87327E-001	1.15083E-007	0.00000E+000	4.87350E-001	1.00429E-003	5	..........a	-327.66
	170	34.2	5.07248E-001	1.21167E-007	0.00000E+000	5.07350E-001	1.01969E-003	5	..........a	-327.66
	172	34.6	5.27360E-001	1.27200E-007	0.00000E+000	5.27350E-001	9.87592E-004	5	..........a	-327.66
	174	35	5.47300E-001	1.33031E-007	0.00000E+000	5.47350E-001	1.01429E-003	5	..........a	-327.66
	176	35.4	5.67332E-001	1.38724E-007	0.00000E+000	5.67350E-001	1.00349E-003	5	..........a	-327.66
	178	35.8	5.87233E-001	1.44348E-007	0.00000E+000	5.87350E-001	1.00689E-003	5	..........a	-327.66
	180	36.2	6.07352E-001	1.49958E-007	0.00000E+000	6.07350E-001	9.94692E-004	5	..........a	-327.66
	182	36.6	6.27242E-001	1.55578E-007	0.00000E+000	6.27350E-001	1.00839E-003	5	..........a	-327.66
	184	37	6.47267E-001	1.61268E-007	0.00000E+000	6.47350E-001	1.00179E-003	5	..........a	-327.66
	186	37.4	6.67171E-001	1.67146E-007	0.00000E+000	6.67350E-001	1.01509E-003	5	..........a	-327.66
	188	37.8	6.87272E-001	1.73329E-007	0.00000E+000	6.87350E-001	9.98892E-004	5	..........a	-327.66
	190	38.2	7.07197E-001	1.79819E-007	0.00000E+000	7.07350E-001	1.01099E-003	5	..........a	-327.66
	192	38.6	7.27234E-001	1.86885E-007	0.00000E+000	7.27350E-001	1.00419E-003	5	..........a	-327.66
	194	39	7.47206E-001	1.94799E-007	0.00000E+000	7.47350E-001	1.02209E-003	5	..........a	-327.66
	196	39.4	7.67222E-001	2.03804E-007	0.00000E+000	7.67350E-001	1.00649E-003	5	..........a	-327.66
	198	39.8	7.87147E-001	2.14068E-007	0.00000E+000	7.87350E-001	1.01039E-003	5	..........a	-327.66
	199	40	7.97186E-001	2.19678E-007	0.00000E+000	7.97350E-001	9.97092E-004	5	..........a	-327.66
CURVE2	TABLE
	Pt	T	Vf	Im	Vu	Sig	Ach	IERange	Over	Temp
	#	s	V vs. Ref.	A	V	V	V	#	bits	deg C
	200	40.2	7.89957E-001	1.85382E-007	0.00000E+000	7.90000E-001	1.03779E-003	5	..........a	-327.66
	203	40.8	7.59895E-001	1.24052E-007	0.00000E+000	7.60000E-001	1.01279E-003	5	..........a	-327.66
	206	41.4	7.29879E-001	9.43777E-008	0.00000E+000	7.30000E-001	1.01189E-003	5	..........a	-327.66
	209	42	6.99910E-001	7.55768E-008	0.00000E+000	7.00000E-001	1.02209E-003	5	..........a	-327.66
	212	42.6	6.69971E-001	6.17405E-008	0.00000E+000	6.70000E-001	1.00769E-003	5	..........a	-327.66
	215	43.2	6.39898E-001	5.06691E-008	0.00000E+000	6.40000E-001	1.02839E-003	5	..........a	-327.66
	218	43.8	6.09949E-001	4.12955E-008	0.00000E+000	6.10000E-001	1.02919E-003	5	..........a	-327.66
	221	44.4	5.80033E-001	3.31146E-008	0.00000E+000	5.80000E-001	1.01059E-003	5	..........a	-327.66
	224	45	5.50036E-001	2.59448E-008	0.00000E+000	5.50000E-001	1.00919E-003	5	..........a	-327.66
	227	45.6	5.19980E-001	1.94055E-008	0.00000E+000	5.20000E-001	1.03619E-003	5	..........a	-327.66
	230	46.2	4.89908E-001	1.33962E-008	0.00000E+000	4.90000E-001	1.01709E-003	5	..........a	-327.66
	233	46.8	4.60002E-001	7.80282E-009	0.00000E+000	4.60000E-001	9.97492E-004	5	..........a	-327.66
	236	47.4	4.29957E-001	2.37483E-009	0.00000E+000	4.30000E-001	1.03399E-003	5	..........a	-327.66
	239	48	4.00047E-001	-3.13353E-009	0.00000E+000	4.00000E-001	9.97492E-004	5	..........a	-327.66
	242	48.6	3.70068E-001	-8.64285E-009	0.00000E+000	3.70000E-001	1.00829E-003	5	..........a	-327.66
	245	49.2	3.40113E-001	-1.43166E-008	0.00000E+000	3.40000E-001	1.01169E-003	5	..........a	-327.66
	248	49.8	3.10068E-001	-2.04244E-008	0.00000E+000	3.10000E-001	1.01389E-003	5	..........a	-327.66
	251	50.4	2.79985E-001	-2.71164E-008	0.00000E+000	2.80000E-001	1.01939E-003	5	..........a	-327.66
	254	51	2.50041E-001	-3.44975E-008	0.00000E+000	2.50000E-001	1.02659E-003	5	..........a	-327.66
	257	51.6	2.20080E-001	-4.17381E-008	0.00000E+000	2.20000E-001	9.90792E-004	5	..........a	-327.66
	260	52.2	1.90130E-001	-4.68242E-008	0.00000E+000	1.90000E-001	9.90092E-004	5	..........a	-327.66
[...]
	1027	205.6	6.79891E-001	1.40260E-007	0.00000E+000	6.80000E-001	9.95092E-004	5	..........a	-327.66
	1030	206.2	7.09964E-001	1.49124E-007	0.00000E+000	7.10000E-001	1.01669E-003	5	..........a	-327.66
	1033	206.8	7.39867E-001	1.60197E-007	0.00000E+000	7.40000E-001	9.85992E-004	5	..........a	-327.66
	1036	207.4	7.69863E-001	1.74368E-007	0.00000E+000	7.70000E-001	1.00909E-003	5	..........a	-327.66
	1039	208	7.99856E-001	1.91930E-007	0.00000E+000	8.00000E-001	1.01589E-003	5	..........a	-327.66
CURVE5	TABLE
	Pt	T	Vf	Im	Vu	Sig	Ach	IERange	Over	Temp
	#	s	V vs. Ref.	A	V	V	V	#	bits	deg C
	1040	208.2	7.89966E-001	1.57155E-007	0.00000E+000	7.90000E-001	1.00819E-003	5	..........a	-327.66
	1041	208.4	7.79874E-001	1.34825E-007	0.00000E+000	7.80000E-001	1.01359E-003	5	..........a	-327.66
	1042	208.6	7.69927E-001	1.18638E-007	0.00000E+000	7.70000E-001	1.00579E-003	5	..........a	-327.66
	1043	208.8	7.59889E-001	1.06228E-007	0.00000E+000	7.60000E-001	1.01049E-003	5	..........a	-327.66
	1044	209	7.49981E-001	9.62523E-008	0.00000E+000	7.50000E-001	1.00739E-003	5	..........a	-327.66
	1045	209.2	7.39923E-001	8.79797E-008	0.00000E+000	7.40000E-001	1.01949E-003	5	..........a	-327.66
	1046	209.4	7.29910E-001	8.09256E-008	0.00000E+000	7.30000E-001	1.01179E-003	5	..........a	-327.66
	1047	209.6	7.19905E-001	7.48990E-008	0.00000E+000	7.20000E-001	1.02649E-003	5	..........a	-327.66
	1048	209.8	7.09947E-001	6.94391E-008	0.00000E+000	7.10000E-001	1.02189E-003	5	..........a	-327.66
	1049	210	6.99916E-001	6.46312E-008	0.00000E+000	7.00000E-001	1.00109E-003	5	..........a	-327.66
	1050	210.2	6.89917E-001	6.01747E-008	0.00000E+000	6.90000E-001	1.03449E-003	5	..........a	-327.66
	1051	210.4	6.79959E-001	5.60839E-008	0.00000E+000	6.80000E-001	1.01459E-003	5	..........a	-327.66
	1052	210.6	6.69977E-001	5.23032E-008	0.00000E+000	6.70000E-001	1.01869E-003	5	..........a	-327.66
	1053	210.8	6.59934E-001	4.87435E-008	0.00000E+000	6.60000E-001	1.01769E-003	5	..........a	-327.66
	1054	211	6.49947E-001	4.54018E-008	0.00000E+000	6.50000E-001	1.01179E-003	5	..........a	-327.66
	1055	211.2	6.39880E-001	4.22438E-008	0.00000E+000	6.40000E-001	1.01999E-003	5	..........a	-327.66
	1056	211.4	6.29998E-001	3.91917E-008	0.00000E+000	6.30000E-001	1.00709E-003	5	..........a	-327.66
	1057	211.6	6.19944E-001	3.63229E-008	0.00000E+000	6.20000E-001	1.00729E-003	5	..........a	-327.66
	1058	211.8	6.09937E-001	3.35511E-008	0.00000E+000	6.10000E-001	1.02399E-003	5	..........a	-327.66
	1059	212	5.99985E-001	3.09067E-008	0.00000E+000	6.00000E-001	1.01629E-003	5	..........a	-327.66
	1060	212.2	5.89975E-001	2.84252E-008	0.00000E+000	5.90000E-001	1.02039E-003	5	..........a	-327.66
	1061	212.4	5.80025E-001	2.60677E-008	0.00000E+000	5.80000E-001	1.00729E-003	5	..........a	-327.66
	1062	212.6	5.69942E-001	2.38453E-008	0.00000E+000	5.70000E-001	1.00829E-003	5	..........a	-327.66
	1063	212.8	5.59945E-001	2.17048E-008	0.00000E+000	5.60000E-001	1.02749E-003	5	..........a	-327.66
	1064	213	5.50041E-001	1.95404E-008	0.00000E+000	5.50000E-001	1.01219E-003	5	..........a	-327.66
	1065	213.2	5.40008E-001	1.74419E-008	0.00000E+000	5.40000E-001	1.00419E-003	5	..........a	-327.66
	1066	213.4	5.29969E-001	1.54066E-008	0.00000E+000	5.30000E-001	1.02319E-003	5	..........a	-327.66
	1067	213.6	5.19961E-001	1.34008E-008	0.00000E+000	5.20000E-001	1.02459E-003	5	..........a	-327.66
	1068	213.8	5.09980E-001	1.14716E-008	0.00000E+000	5.10000E-001	1.02339E-003	5	..........a	-327.66
	1069	214	5.00051E-001	9.64949E-009	0.00000E+000	5.00000E-001	9.95692E-004	5	..........a	-327.66
	1070	214.2	4.89939E-001	7.89419E-009	0.00000E+000	4.90000E-001	1.01559E-003	5	..........a	-327.66
	1071	214.4	4.79916E-001	6.21059E-009	0.00000E+000	4.80000E-001	1.01799E-003	5	..........a	-327.66
	1072	214.6	4.70022E-001	4.50744E-009	0.00000E+000	4.70000E-001	1.01369E-003	5	..........a	-327.66
	1073	214.8	4.59993E-001	2.80801E-009	0.00000E+000	4.60000E-001	1.01809E-003	5	..........a	-327.66
	1074	215	4.49758E-001	1.06025E-009	0.00000E+000	4.50000E-001	1.00329E-003	5	..........a	-327.66
	1075	215.2	4.39955E-001	-7.29631E-010	0.00000E+000	4.40000E-001	1.00859E-003	5	..........a	-327.66
	1076	215.4	4.29990E-001	-2.45072E-009	0.00000E+000	4.30000E-001	1.02699E-003	5	..........a	-327.66
	1077	215.6	4.20033E-001	-4.16437E-009	0.00000E+000	4.20000E-001	1.01519E-003	5	..........a	-327.66
	1078	215.8	4.10008E-001	-5.98978E-009	0.00000E+000	4.10000E-001	1.00819E-003	5	..........a	-327.66
	1079	216	4.00002E-001	-7.74024E-009	0.00000E+000	4.00000E-001	1.02599E-003	5	..........a	-327.66
	1080	216.2	3.90067E-001	-9.54126E-009	0.00000E+000	3.90000E-001	1.00929E-003	5	..........a	-327.66
	1081	216.4	3.80080E-001	-1.13678E-008	0.00000E+000	3.80000E-001	1.00439E-003	5	..........a	-327.66
	1082	216.6	3.70051E-001	-1.32447E-008	0.00000E+000	3.70000E-001	1.02459E-003	5	..........a	-327.66
	1083	216.8	3.60024E-001	-1.51379E-008	0.00000E+000	3.60000E-001	1.01059E-003	5	..........a	-327.66
	1084	217	3.49991E-001	-1.70727E-008	0.00000E+000	3.50000E-001	1.03329E-003	5	..........a	-327.66
	1085	217.2	3.40092E-001	-1.90829E-008	0.00000E+000	3.40000E-001	9.98092E-004	5	..........a	-327.66
	1086	217.4	3.30006E-001	-2.12195E-008	0.00000E+000	3.30000E-001	1.00349E-003	5	..........a	-327.66
	1087	217.6	3.20049E-001	-2.33100E-008	0.00000E+000	3.20000E-001	1.01499E-003	5	..........a	-327.66
	1088	217.8	3.10058E-001	-2.55541E-008	0.00000E+000	3.10000E-001	1.01299E-003	5	..........a	-327.66
	1089	218	3.00103E-001	-2.78868E-008	0.00000E+000	3.00000E-001	1.02729E-003	5	..........a	-327.66
	1090	218.2	2.90053E-001	-3.03572E-008	0.00000E+000	2.90000E-001	1.01859E-003	5	..........a	-327.66
	1091	218.4	2.79975E-001	-3.29628E-008	0.00000E+000	2.80000E-001	1.03339E-003	5	..........a	-327.66
	1092	218.6	2.70086E-001	-3.56889E-008	0.00000E+000	2.70000E-001	1.02049E-003	5	..........a	-327.66
	1093	218.8	2.60062E-001	-3.84918E-008	0.00000E+000	2.60000E-001	1.02049E-003	5	..........a	-327.66
	1094	219	2.49993E-001	-4.14833E-008	0.00000E+000	2.50000E-001	1.00329E-003	5	..........a	-327.66
	1095	219.2	2.40086E-001	-4.44301E-008	0.00000E+000	2.40000E-001	1.00089E-003	5	..........a	-327.66
	1096	219.4	2.30024E-001	-4.72991E-008	0.00000E+000	2.30000E-001	1.02249E-003	5	..........a	-327.66
	1097	219.6	2.20013E-001	-5.00145E-008	0.00000E+000	2.20000E-001	9.99892E-004	5	..........a	-327.66
	1098	219.8	2.10030E-001	-5.24745E-008	0.00000E+000	2.10000E-001	1.02539E-003	5	..........a	-327.66
	1099	220	2.00075E-001	-5.44640E-008	0.00000E+000	2.00000E-001	1.02819E-003	5	..........a	-327.66
	1100	220.2	1.90131E-001	-5.59386E-008	0.00000E+000	1.90000E-001	1.02749E-003	5	..........a	-327.66
	1101	220.4	1.80134E-001	-5.68660E-008	0.00000E+000	1.80000E-001	9.89192E-004	5	..........a	-327.66
	1102	220.6	1.70084E-001	-5.71322E-008	0.00000E+000	1.70000E-001	1.01169E-003	5	..........a	-327.66
	1103	220.8	1.60077E-001	-5.68616E-008	0.00000E+000	1.60000E-001	1.02329E-003	5	..........a	-327.66
	1104	221	1.50086E-001	-5.60743E-008	0.00000E+000	1.50000E-001	1.01859E-003	5	..........a	-327.66
	1105	221.2	1.40147E-001	-5.49617E-008	0.00000E+000	1.40000E-001	1.00209E-003	5	..........a	-327.66
	1106	221.4	1.30060E-001	-5.36111E-008	0.00000E+000	1.30000E-001	1.02709E-003	5	..........a	-327.66
	1107	221.6	1.20062E-001	-5.21749E-008	0.00000E+000	1.20000E-001	1.02339E-003	5	..........a	-327.66
	1108	221.8	1.10129E-001	-5.07067E-008	0.00000E+000	1.10000E-001	1.02749E-003	5	..........a	-327.66
	1109	222	1.00135E-001	-4.94634E-008	0.00000E+000	1.00000E-001	1.00279E-003	5	..........a	-327.66
	1110	222.2	9.00910E-002	-4.84000E-008	0.00000E+000	9.00000E-002	1.00439E-003	5	..........a	-327.66
	1111	222.4	8.00385E-002	-4.76060E-008	0.00000E+000	8.00000E-002	1.01939E-003	5	..........a	-327.66
	1112	222.6	7.00411E-002	-4.71386E-008	0.00000E+000	7.00000E-002	1.02229E-003	5	..........a	-327.66
	1113	222.8	6.01269E-002	-4.69213E-008	0.00000E+000	6.00000E-002	1.01209E-003	5	..........a	-327.66
	1114	223	5.00612E-002	-4.69402E-008	0.00000E+000	5.00000E-002	1.02179E-003	5	..........a	-327.66
	1115	223.2	4.01323E-002	-4.71451E-008	0.00000E+000	4.00000E-002	1.00559E-003	5	..........a	-327.66
	1116	223.4	3.00659E-002	-4.75173E-008	0.00000E+000	3.00000E-002	1.03759E-003	5	..........a	-327.66
	1117	223.6	2.01597E-002	-4.81991E-008	0.00000E+000	2.00000E-002	1.00819E-003	5	..........a	-327.66
	1118	223.8	1.01148E-002	-4.87459E-008	0.00000E+000	1.00000E-002	1.01609E-003	5	..........a	-327.66
	1119	224	3.51417E-005	-4.91113E-008	0.00000E+000	7.45058E-009	1.03009E-003	5	..........a	-327.66
	1120	224.2	-9.86361E-003	-4.93214E-008	0.00000E+000	-1.00000E-002	1.00239E-003	5	..........a	-327.66