File: example_project/raw_outputs/20240321_G_GM0016_HL03_E02_CV50.DTA
EXPLAIN
TAG	CV
TITLE	LABEL	Cyclic Voltammetry	Test &Identifier
DATE	LABEL	3/21/2024	Date
TIME	LABEL	16:38:34	Time
NOTES	NOTES	1	&Notes...

PSTAT	PSTAT	REF600P-43058	Potentiostat
VINIT	POTEN	0.00000E+000	T	Initial &E (V)
VLIMIT1	POTEN	-6.00000E-001	F	Scan Limit &1 (V)
VLIMIT2	POTEN	8.00000E-001	F	Scan Limit &2 (V)
VFINAL	POTEN	0.00000E+000	T	Final &E (V)
SCANRATE	QUANT	4.99999E+001	&Scan Rate (mV/s)
STEPSIZE	QUANT	1.00000E+001	St&ep Size (mV)
CYCLES	IQUANT	4	C&ycles (#)
IMODE	SELECTOR	1	I/E Range &Mode
IRANGE	QUANT	1.00000E-005	&Max Current (mA)
AREA	QUANT	1.00000E+000	Electrode &Area (cm^2)
ELECTRODETYPE	SELECTOR	0	Electrode Type
STRIPPING	TOGGLE	F	Used for Stripping
POLARITY	TOGGLE	F	Signal Polarity
CONDIT	TWOPARAM	F	1.50000E+001	0.00000E+000	Conditionin&g	Time(s)	E(V)
DELAY	TWOPARAM	T	1.00000E+001	0.00000E+000	Init. De&lay	Time(s)	Stab.(mV/s)
EQDELAY	QUANT	1.00000E+001	Equil. &Time (s)
IRCOMP	SELECTOR	0	IRCom&p
PFCOR	QUANT	5.00000E+001	PF Corr. (ohm)
SAMPLINGMODE	SELECTOR	1	Sampling &Mode
OCVCURVE	TABLE	39
	Pt	T	Vf	Vm	Ach	Over	Temp
	#	s	V vs. Ref.	V	V	bits	deg C
	0	0.258333	1.77651E-001	1.77651E-001	2.19289E-004	..........a	-327.66
	1	0.516667	1.77660E-001	1.78149E-001	2.16689E-004	..........a	-327.66
	2	0.775	1.77720E-001	1.78681E-001	2.21089E-004	..........a	-327.66
	3	1.03333	1.77893E-001	1.79232E-001	2.21556E-004	..........a	-327.66
	4	1.29167	1.78214E-001	1.79797E-001	2.15822E-004	..........a	-327.66
	5	1.55	1.78662E-001	1.80374E-001	2.20622E-004	..........a	-327.66
	6	1.80833	1.79188E-001	1.80948E-001	2.23689E-004	..........a	-327.66
	7	2.06667	1.79750E-001	1.81535E-001	2.22556E-004	..........a	-327.66
	8	2.325	1.80326E-001	1.82118E-001	2.21756E-004	..........a	-327.66
	9	2.58333	1.80907E-001	1.82701E-001	2.10956E-004	..........a	-327.66
	10	2.84167	1.81489E-001	1.83279E-001	2.28022E-004	..........a	-327.66
	11	3.1	1.82072E-001	1.83866E-001	2.24822E-004	..........a	-327.66
	12	3.35833	1.82654E-001	1.84447E-001	2.18556E-004	..........a	-327.66
	13	3.61667	1.83236E-001	1.85029E-001	2.20756E-004	..........a	-327.66
	14	3.875	1.83819E-001	1.85611E-001	2.31489E-004	..........a	-327.66
	15	4.13333	1.84402E-001	1.86198E-001	2.29822E-004	..........a	-327.66
	16	4.39167	1.84984E-001	1.86770E-001	2.22489E-004	..........a	-327.66
	17	4.65	1.85566E-001	1.87351E-001	2.21956E-004	..........a	-327.66
	18	4.90833	1.86147E-001	1.87919E-001	2.22422E-004	..........a	-327.66
	19	5.16667	1.86726E-001	1.88493E-001	2.29556E-004	..........a	-327.66
	20	5.425	1.87302E-001	1.89068E-001	2.23756E-004	..........a	-327.66
	21	5.68333	1.87876E-001	1.89636E-001	2.25422E-004	..........a	-327.66
	22	5.94167	1.88449E-001	1.90205E-001	2.23222E-004	..........a	-327.66
	23	6.2	1.89021E-001	1.90766E-001	2.26222E-004	..........a	-327.66
	24	6.45833	1.89590E-001	1.91331E-001	2.30022E-004	..........a	-327.66
	25	6.71667	1.90158E-001	1.91902E-001	2.28222E-004	..........a	-327.66
	26	6.975	1.90724E-001	1.92461E-001	2.21889E-004	..........a	-327.66
	27	7.23333	1.91289E-001	1.93022E-001	2.22022E-004	..........a	-327.66
	28	7.49167	1.91853E-001	1.93576E-001	2.30156E-004	..........a	-327.66
	29	7.75	1.92416E-001	1.94129E-001	2.35489E-004	..........a	-327.66
	30	8.00833	1.92975E-001	1.94684E-001	2.27356E-004	..........a	-327.66
	31	8.26667	1.93532E-001	1.95231E-001	2.24622E-004	..........a	-327.66
	32	8.525	1.94086E-001	1.95788E-001	2.29289E-004	..........a	-327.66
	33	8.78333	1.94639E-001	1.96334E-001	2.29822E-004	..........a	-327.66
	34	9.04167	1.95191E-001	1.96881E-001	2.33689E-004	..........a	-327.66
	35	9.3	1.95741E-001	1.97417E-001	2.24756E-004	..........a	-327.66
	36	9.5583	1.96289E-001	1.97954E-001	2.24756E-004	..........a	-327.66
	37	9.8167	1.96833E-001	1.98478E-001	2.23022E-004	..........a	-327.66
	38	10.075	1.97373E-001	1.99014E-001	2.26956E-004	..........a	-327.66
EOC	QUANT	0.1973726	Open Circuit (V)
PSTATMODEL	IQUANT	7	Pstat Model
PSTATSECTION	LABEL	REF600P-43058	Pstat Section
PSTATSERIALNO	LABEL	43058	Pstat Serial Number
CTRLMODE	IQUANT	1	Control Mode
ELECTROMETER	IQUANT	0	RE=0 or CS=1
IESTAB	IQUANT	2	I/E Stability
CASPEED	IQUANT	4	Control Amp Speed
CONVENTION	IQUANT	1	Current Convention
ICHRANGE	IQUANT	2	Ich Range
ICHRANGEMODE	TOGGLE	F	Ich Auto Range
ICHOFFSETENABLE	TOGGLE	F	Ich Offset Enable
ICHOFFSET	QUANT	0	Ich Offset (V)
ICHFILTER	IQUANT	2	Ich Filter
VCHRANGE	IQUANT	2	Vch Range
VCHRANGEMODE	TOGGLE	F	Vch Auto Range
VCHOFFSETENABLE	TOGGLE	F	Vch Offset Enable
VCHOFFSET	QUANT	0	Vch Offset (V)
VCHFILTER	IQUANT	2	Vch Filter
ACHRANGE	IQUANT	2	Ach Range
ACHOFFSETENABLE	TOGGLE	F	Ach Offset Enable
ACHOFFSET	QUANT	0	Ach Offset (V)
ACHFILTER	IQUANT	1	Ach Filter
IERANGELOWERLIMIT	IQUANT	1	I/E Range Lower Limit
IERANGEMODE	TOGGLE	F	I/E AutoRange
IERANGE	IQUANT	4	I/E Range
POSFEEDENABLE	TOGGLE	F	Positive Feedback IR Comp
POSFEEDRESISTANCE	QUANT	0	Positive Feedback Resistance (ohm)
ACHSELECT	IQUANT	4	Ach Select
SENSECABLEID	IQUANT	7	Sense Cable ID
PWRCABLEID	IQUANT	7	Power Cable ID
DCCALDATE	LABEL	12/18/2023	DC Calibration Date
ACCALDATE	LABEL	12/18/2023	AC Calibration Date
THERMOSELECT	IQUANT	1	Thermo Select
FRAMEWORKVERSION	LABEL	7.8.4	Framework Version
INSTRUMENTVERSION	LABEL	4.42	Instrument Version
CURVE1	TABLE
	Pt	T	Vf	Im	Vu	Sig	Ach	IERange	Over	Temp
	#	s	V vs. Ref.	A	V	V	V	#	bits	deg C
	0	0.2	1.97411E-001	1.72415E-011	0.00000E+000	1.97350E-001	9.58822E-004	4	..........a	-327.66
	3	0.8	1.67397E-001	-2.45441E-011	0.00000E+000	1.67350E-001	9.69522E-004	4	..........a	-327.66
	6	1.4	1.37371E-001	-3.37865E-011	0.00000E+000	1.37350E-001	9.68422E-004	4	..........a	-327.66
	9	2	1.07398E-001	-3.88597E-011	0.00000E+000	1.07350E-001	9.64122E-004	4	..........a	-327.66
	12	2.6	7.74194E-002	-4.25018E-011	0.00000E+000	7.73500E-002	9.56922E-004	4	..........a	-327.66
	15	3.2	4.73691E-002	-4.84031E-011	0.00000E+000	4.73500E-002	9.76322E-004	4	..........a	-327.66
	18	3.8	1.73656E-002	-5.26712E-011	0.00000E+000	1.73500E-002	9.76922E-004	4	..........a	-327.66
	21	4.4	-1.26256E-002	-5.82864E-011	0.00000E+000	-1.26500E-002	9.61922E-004	4	..........a	-327.66
	24	5	-4.25948E-002	-6.53107E-011	0.00000E+000	-4.26500E-002	9.52222E-004	4	..........a	-327.66
	27	5.6	-7.26053E-002	-7.24630E-011	0.00000E+000	-7.26500E-002	9.57122E-004	4	..........a	-327.66
	30	6.2	-1.02674E-001	-8.15523E-011	0.00000E+000	-1.02650E-001	9.76822E-004	4	..........a	-327.66
	33	6.8	-1.32630E-001	-9.35088E-011	0.00000E+000	-1.32650E-001	9.63122E-004	4	..........a	-327.66
	36	7.4	-1.62558E-001	-1.07436E-010	0.00000E+000	-1.62650E-001	9.67322E-004	4	..........a	-327.66
	39	8	-1.92607E-001	-1.24473E-010	0.00000E+000	-1.92650E-001	9.82022E-004	4	..........a	-327.66
	42	8.6	-2.22615E-001	-1.45923E-010	0.00000E+000	-2.22650E-001	9.62722E-004	4	..........a	-327.66
	45	9.2	-2.52595E-001	-1.71329E-010	0.00000E+000	-2.52650E-001	9.47922E-004	4	..........a	-327.66
	48	9.8	-2.82553E-001	-2.01391E-010	0.00000E+000	-2.82650E-001	9.82222E-004	4	..........a	-327.66
	51	10.4	-3.12598E-001	-2.36685E-010	0.00000E+000	-3.12650E-001	9.61622E-004	4	..........a	-327.66
	54	11	-3.42579E-001	-2.75132E-010	0.00000E+000	-3.42650E-001	9.59722E-004	4	..........a	-327.66
	57	11.6	-3.72582E-001	-3.20752E-010	0.00000E+000	-3.72650E-001	9.71522E-004	4	..........a	-327.66
	60	12.2	-4.02557E-001	-3.66584E-010	0.00000E+000	-4.02650E-001	9.72122E-004	4	..........a	-327.66
	63	12.8	-4.32570E-001	-4.20710E-010	0.00000E+000	-4.32650E-001	9.66622E-004	4	..........a	-327.66
	66	13.4	-4.62483E-001	-4.76261E-010	0.00000E+000	-4.62650E-001	9.81522E-004	4	..........a	-327.66
	69	14	-4.92562E-001	-5.47755E-010	0.00000E+000	-4.92650E-001	9.52322E-004	4	..........a	-327.66
	72	14.6	-5.22478E-001	-6.33395E-010	0.00000E+000	-5.22650E-001	9.64122E-004	4	..........a	-327.66
	75	15.2	-5.52565E-001	-7.48668E-010	0.00000E+000	-5.52650E-001	9.69122E-004	4	..........a	-327.66
	78	15.8	-5.82582E-001	-9.04182E-010	0.00000E+000	-5.82650E-001	9.71122E-004	4	..........a	-327.66
	81	16.4	-5.92552E-001	-8.03207E-010	0.00000E+000	-5.92650E-001	9.77722E-004	4	..........a	-327.66
	84	17	-5.62528E-001	-4.56077E-010	0.00000E+000	-5.62650E-001	9.77622E-004	4	..........a	-327.66
	87	17.6	-5.32561E-001	-2.85825E-010	0.00000E+000	-5.32650E-001	9.54422E-004	4	..........a	-327.66
	90	18.2	-5.02576E-001	-1.67644E-010	0.00000E+000	-5.02650E-001	9.73522E-004	4	..........a	-327.66
	93	18.8	-4.72557E-001	-8.39374E-011	0.00000E+000	-4.72650E-001	9.54022E-004	4	..........a	-327.66
	96	19.4	-4.42431E-001	-2.27771E-011	0.00000E+000	-4.42650E-001	9.81422E-004	4	..........a	-327.66
	99	20	-4.12576E-001	2.46767E-011	0.00000E+000	-4.12650E-001	9.60522E-004	4	..........a	-327.66
	102	20.6	-3.82610E-001	5.75730E-011	0.00000E+000	-3.82650E-001	9.79322E-004	4	..........a	-327.66
	105	21.2	-3.52590E-001	8.30280E-011	0.00000E+000	-3.52650E-001	9.74122E-004	4	..........a	-327.66
	108	21.8	-3.22554E-001	1.01058E-010	0.00000E+000	-3.22650E-001	9.58422E-004	4	..........a	-327.66
	111	22.4	-2.92948E-001	1.14622E-010	0.00000E+000	-2.92650E-001	9.73622E-004	4	..........a	-327.66
	114	23	-2.62626E-001	1.25201E-010	0.00000E+000	-2.62650E-001	9.61122E-004	4	..........a	-327.66
	117	23.6	-2.32618E-001	1.28617E-010	0.00000E+000	-2.32650E-001	9.66922E-004	4	..........a	-327.66
	120	24.2	-2.02552E-001	1.29856E-010	0.00000E+000	-2.02650E-001	9.67522E-004	4	..........a	-327.66
	123	24.8	-1.72607E-001	1.30051E-010	0.00000E+000	-1.72650E-001	9.71222E-004	4	..........a	-327.66
	126	25.4	-1.42618E-001	1.29461E-010	0.00000E+000	-1.42650E-001	9.44322E-004	4	..........a	-327.66
	129	26	-1.12607E-001	1.27906E-010	0.00000E+000	-1.12650E-001	9.62422E-004	4	..........a	-327.66
	132	26.6	-8.25119E-002	1.25828E-010	0.00000E+000	-8.26500E-002	9.58022E-004	4	..........a	-327.66
	135	27.2	-5.26166E-002	1.27296E-010	0.00000E+000	-5.26500E-002	9.71422E-004	4	..........a	-327.66
	138	27.8	-2.26625E-002	1.25400E-010	0.00000E+000	-2.26500E-002	9.70522E-004	4	..........a	-327.66
	141	28.4	7.39684E-003	1.25893E-010	0.00000E+000	7.35001E-003	9.72122E-004	4	..........a	-327.66
	144	29	3.74374E-002	1.29374E-010	0.00000E+000	3.73500E-002	9.58222E-004	4	..........a	-327.66
	147	29.6	6.73881E-002	1.31605E-010	0.00000E+000	6.73500E-002	9.78122E-004	4	..........a	-327.66
	150	30.2	9.73462E-002	1.36599E-010	0.00000E+000	9.73500E-002	9.81522E-004	4	..........a	-327.66
	153	30.8	1.27348E-001	1.41505E-010	0.00000E+000	1.27350E-001	1.01042E-003	4	..........a	-327.66
	156	31.4	1.57435E-001	1.49455E-010	0.00000E+000	1.57350E-001	9.69422E-004	4	..........a	-327.66
	159	32	1.87400E-001	1.60578E-010	0.00000E+000	1.87350E-001	9.79422E-004	4	..........a	-327.66
	162	32.6	2.17375E-001	1.69595E-010	0.00000E+000	2.17350E-001	9.72022E-004	4	..........a	-327.66
	165	33.2	2.47319E-001	1.81496E-010	0.00000E+000	2.47350E-001	9.75822E-004	4	..........a	-327.66
	168	33.8	2.77481E-001	1.95289E-010	0.00000E+000	2.77350E-001	9.80422E-004	4	..........a	-327.66
	171	34.4	3.07347E-001	2.10518E-010	0.00000E+000	3.07350E-001	9.81122E-004	4	..........a	-327.66
	174	35	3.37303E-001	2.28040E-010	0.00000E+000	3.37350E-001	9.94322E-004	4	..........a	-327.66
	177	35.6	3.67336E-001	2.48955E-010	0.00000E+000	3.67350E-001	9.85722E-004	4	..........a	-327.66
	180	36.2	3.97395E-001	2.71087E-010	0.00000E+000	3.97350E-001	9.84122E-004	4	..........a	-327.66
	183	36.8	4.27238E-001	2.95849E-010	0.00000E+000	4.27350E-001	9.75022E-004	4	..........a	-327.66
	186	37.4	4.57240E-001	3.22714E-010	0.00000E+000	4.57350E-001	9.74922E-004	4	..........a	-327.66
	189	38	4.87314E-001	3.50212E-010	0.00000E+000	4.87350E-001	9.65822E-004	4	..........a	-327.66
	192	38.6	5.17345E-001	3.79159E-010	0.00000E+000	5.17350E-001	9.79822E-004	4	..........a	-327.66
	195	39.2	5.47347E-001	4.05520E-010	0.00000E+000	5.47350E-001	9.97222E-004	4	..........a	-327.66
	198	39.8	5.77421E-001	4.31893E-010	0.00000E+000	5.77350E-001	9.80422E-004	4	..........a	-327.66
	201	40.4	6.07294E-001	4.58489E-010	0.00000E+000	6.07350E-001	9.98622E-004	4	..........a	-327.66
	204	41	6.37341E-001	4.86557E-010	0.00000E+000	6.37350E-001	9.75422E-004	4	..........a	-327.66
	207	41.6	6.67244E-001	5.18497E-010	0.00000E+000	6.67350E-001	9.94222E-004	4	..........a	-327.66
	210	42.2	6.97228E-001	5.54633E-010	0.00000E+000	6.97350E-001	9.87622E-004	4	..........a	-327.66
	213	42.8	7.27327E-001	5.98805E-010	0.00000E+000	7.27350E-001	9.85022E-004	4	..........a	-327.66
	216	43.4	7.57043E-001	6.55400E-010	0.00000E+000	7.57350E-001	9.69422E-004	4	..........a	-327.66
	219	44	7.87276E-001	7.22831E-010	0.00000E+000	7.87350E-001	9.90522E-004	4	..........a	-327.66
	220	44.2	7.97279E-001	7.49838E-010	0.00000E+000	7.97350E-001	9.98022E-004	4	..........a	-327.66
CURVE2	TABLE
	Pt	T	Vf	Im	Vu	Sig	Ach	IERange	Over	Temp
	#	s	V vs. Ref.	A	V	V	V	#	bits	deg C
	221	44.4	7.89917E-001	5.55364E-010	0.00000E+000	7.90000E-001	9.82122E-004	4	..........a	-327.66
	224	45	7.59956E-001	2.31243E-010	0.00000E+000	7.60000E-001	9.83522E-004	4	..........a	-327.66
	227	45.6	7.29949E-001	9.26664E-011	0.00000E+000	7.30000E-001	9.73322E-004	4	..........a	-327.66
	230	46.2	6.99961E-001	2.41807E-011	0.00000E+000	7.00000E-001	9.73722E-004	4	..........a	-327.66
	233	46.8	6.69910E-001	-2.02700E-011	0.00000E+000	6.70000E-001	9.80722E-004	4	..........a	-327.66
	236	47.4	6.39918E-001	-4.82731E-011	0.00000E+000	6.40000E-001	9.83422E-004	4	..........a	-327.66
	239	48	6.09979E-001	-6.91069E-011	0.00000E+000	6.10000E-001	9.70322E-004	4	..........a	-327.66
	242	48.6	5.80006E-001	-8.44204E-011	0.00000E+000	5.80000E-001	9.84322E-004	4	..........a	-327.66
	245	49.2	5.49937E-001	-9.59139E-011	0.00000E+000	5.50000E-001	9.67522E-004	4	..........a	-327.66
	248	49.8	5.19953E-001	-1.06251E-010	0.00000E+000	5.20000E-001	9.76622E-004	4	..........a	-327.66
	251	50.4	4.89933E-001	-1.13601E-010	0.00000E+000	4.90000E-001	9.65222E-004	4	..........a	-327.66
	254	51	4.60013E-001	-1.18703E-010	0.00000E+000	4.60000E-001	9.92122E-004	4	..........a	-327.66
	257	51.6	4.29954E-001	-1.22159E-010	0.00000E+000	4.30000E-001	9.73722E-004	4	..........a	-327.66
	260	52.2	3.99984E-001	-1.25578E-010	0.00000E+000	4.00000E-001	9.73522E-004	4	..........a	-327.66
	263	52.8	3.69972E-001	-1.28066E-010	0.00000E+000	3.70000E-001	9.67222E-004	4	..........a	-327.66
	266	53.4	3.40027E-001	-1.30373E-010	0.00000E+000	3.40000E-001	9.70522E-004	4	..........a	-327.66
	269	54	3.09974E-001	-1.31353E-010	0.00000E+000	3.10000E-001	9.86122E-004	4	..........a	-327.66
	272	54.6	2.79958E-001	-1.31248E-010	0.00000E+000	2.80000E-001	9.83822E-004	4	..........a	-327.66
	275	55.2	2.49996E-001	-1.31544E-010	0.00000E+000	2.50000E-001	9.64122E-004	4	..........a	-327.66
	278	55.8	2.19988E-001	-1.30873E-010	0.00000E+000	2.20000E-001	9.75622E-004	4	..........a	-327.66
	281	56.4	1.90002E-001	-1.29136E-010	0.00000E+000	1.90000E-001	9.64822E-004	4	..........a	-327.66
	284	57	1.60013E-001	-1.27173E-010	0.00000E+000	1.60000E-001	9.82922E-004	4	..........a	-327.66
	287	57.6	1.30050E-001	-1.25840E-010	0.00000E+000	1.30000E-001	9.70922E-004	4	..........a	-327.66
	290	58.2	1.00004E-001	-1.24324E-010	0.00000E+000	1.00000E-001	9.77422E-004	4	..........a	-327.66
	293	58.8	6.99563E-002	-1.25799E-010	0.00000E+000	7.00000E-002	9.74922E-004	4	..........a	-327.66
	296	59.4	3.99919E-002	-1.29285E-010	0.00000E+000	4.00000E-002	9.62822E-004	4	..........a	-327.66
	299	60	1.00649E-002	-1.32714E-010	0.00000E+000	1.00000E-002	9.79322E-004	4	..........a	-327.66
	302	60.6	-1.99591E-002	-1.40196E-010	0.00000E+000	-2.00000E-002	9.78522E-004	4	..........a	-327.66
	305	61.2	-4.99829E-002	-1.49912E-010	0.00000E+000	-5.00000E-002	9.78722E-004	4	..........a	-327.66
	308	61.8	-7.99747E-002	-1.62168E-010	0.00000E+000	-8.00000E-002	9.89922E-004	4	..........a	-327.66
	311	62.4	-1.10031E-001	-1.75898E-010	0.00000E+000	-1.10000E-001	9.75822E-004	4	..........a	-327.66
	314	63	-1.40003E-001	-1.92662E-010	0.00000E+000	-1.40000E-001	9.80022E-004	4	..........a	-327.66
	317	63.6	-1.69970E-001	-2.11943E-010	0.00000E+000	-1.70000E-001	9.64622E-004	4	..........a	-327.66
	320	64.2	-1.99951E-001	-2.33719E-010	0.00000E+000	-2.00000E-001	9.60022E-004	4	..........a	-327.66
	323	64.8	-2.29945E-001	-2.58218E-010	0.00000E+000	-2.30000E-001	9.45322E-004	4	..........a	-327.66
	326	65.4	-2.59901E-001	-2.87067E-010	0.00000E+000	-2.60000E-001	9.70322E-004	4	..........a	-327.66
	329	66	-2.89904E-001	-3.13084E-010	0.00000E+000	-2.90000E-001	9.73322E-004	4	..........a	-327.66
	332	66.6	-3.19866E-001	-3.43034E-010	0.00000E+000	-3.20000E-001	9.64722E-004	4	..........a	-327.66
	335	67.2	-3.49888E-001	-3.77919E-010	0.00000E+000	-3.50000E-001	9.75322E-004	4	..........a	-327.66
	338	67.8	-3.79886E-001	-4.19212E-010	0.00000E+000	-3.80000E-001	9.65622E-004	4	..........a	-327.66
	341	68.4	-4.09868E-001	-4.60607E-010	0.00000E+000	-4.10000E-001	9.69822E-004	4	..........a	-327.66
	344	69	-4.39899E-001	-5.10302E-010	0.00000E+000	-4.40000E-001	9.64822E-004	4	..........a	-327.66
	347	69.6	-4.69843E-001	-5.68289E-010	0.00000E+000	-4.70000E-001	9.61822E-004	4	..........a	-327.66
	350	70.2	-4.99867E-001	-6.39309E-010	0.00000E+000	-5.00000E-001	9.65322E-004	4	..........a	-327.66
	353	70.8	-5.29918E-001	-7.33210E-010	0.00000E+000	-5.30000E-001	9.70922E-004	4	..........a	-327.66
	356	71.4	-5.59874E-001	-8.57726E-010	0.00000E+000	-5.60000E-001	9.64422E-004	4	..........a	-327.66
	359	72	-5.89857E-001	-1.02621E-009	0.00000E+000	-5.90000E-001	9.62322E-004	4	..........a	-327.66
[...]
	985	197.2	5.00117E-002	1.55788E-010	0.00000E+000	5.00000E-002	9.81222E-004	4	..........a	-327.66
	988	197.8	8.00419E-002	1.54403E-010	0.00000E+000	8.00000E-002	9.80522E-004	4	..........a	-327.66
	991	198.4	1.10025E-001	1.60724E-010	0.00000E+000	1.10000E-001	9.76222E-004	4	..........a	-327.66
	994	199	1.40074E-001	1.64165E-010	0.00000E+000	1.40000E-001	9.72822E-004	4	..........a	-327.66
	997	199.6	1.70082E-001	1.70389E-010	0.00000E+000	1.70000E-001	9.62422E-004	4	..........a	-327.66
	1000	200.2	2.00035E-001	1.78965E-010	0.00000E+000	2.00000E-001	9.66622E-004	4	..........a	-327.66
	1003	200.8	2.29909E-001	1.91765E-010	0.00000E+000	2.30000E-001	9.74222E-004	4	..........a	-327.66
	1006	201.4	2.60032E-001	1.98240E-010	0.00000E+000	2.60000E-001	9.68722E-004	4	..........a	-327.66
	1009	202	2.90005E-001	2.06305E-010	0.00000E+000	2.90000E-001	9.57122E-004	4	..........a	-327.66
	1012	202.6	3.20008E-001	2.11270E-010	0.00000E+000	3.20000E-001	9.82922E-004	4	..........a	-327.66
	1015	203.2	3.50002E-001	2.15615E-010	0.00000E+000	3.50000E-001	9.90722E-004	4	..........a	-327.66
	1018	203.8	3.80033E-001	2.18015E-010	0.00000E+000	3.80000E-001	9.76022E-004	4	..........a	-327.66
	1021	204.4	4.09995E-001	2.18825E-010	0.00000E+000	4.10000E-001	9.88722E-004	4	..........a	-327.66
	1024	205	4.39977E-001	2.20041E-010	0.00000E+000	4.40000E-001	9.65322E-004	4	..........a	-327.66
	1027	205.6	4.69973E-001	2.22282E-010	0.00000E+000	4.70000E-001	9.89222E-004	4	..........a	-327.66
	1030	206.2	4.99988E-001	2.26971E-010	0.00000E+000	5.00000E-001	9.98222E-004	4	..........a	-327.66
	1033	206.8	5.30012E-001	2.34049E-010	0.00000E+000	5.30000E-001	9.70722E-004	4	..........a	-327.66
	1036	207.4	5.59866E-001	2.42819E-010	0.00000E+000	5.60000E-001	9.68722E-004	4	..........a	-327.66
	1039	208	5.89904E-001	2.56174E-010	0.00000E+000	5.90000E-001	9.70022E-004	4	..........a	-327.66
	1042	208.6	6.19979E-001	2.74307E-010	0.00000E+000	6.20000E-001	9.67222E-004	4	..........a	-327.66
	1045	209.2	6.49921E-001	2.97815E-010	0.00000E+000	6.50000E-001	9.81922E-004	4	..........a	-327.66
	1048	209.8	6.79987E-001	3.28743E-010	0.00000E+000	6.80000E-001	9.66822E-004	4	..........a	-327.66
	1051	210.4	7.09889E-001	3.69134E-010	0.00000E+000	7.10000E-001	9.61622E-004	4	..........a	-327.66
	1054	211	7.39999E-001	4.22584E-010	0.00000E+000	7.40000E-001	9.82522E-004	4	..........a	-327.66
	1057	211.6	7.69900E-001	4.90680E-010	0.00000E+000	7.70000E-001	9.67422E-004	4	..........a	-327.66
	1060	212.2	7.99914E-001	5.82565E-010	0.00000E+000	8.00000E-001	9.71322E-004	4	..........a	-327.66
CURVE5	TABLE
	Pt	T	Vf	Im	Vu	Sig	Ach	IERange	Over	Temp
	#	s	V vs. Ref.	A	V	V	V	#	bits	deg C
	1061	212.4	7.89846E-001	3.84132E-010	0.00000E+000	7.90000E-001	9.77722E-004	4	..........a	-327.66
	1062	212.6	7.79962E-001	2.69620E-010	0.00000E+000	7.80000E-001	9.71122E-004	4	..........a	-327.66
	1063	212.8	7.69872E-001	1.92828E-010	0.00000E+000	7.70000E-001	9.78322E-004	4	..........a	-327.66
	1064	213	7.59964E-001	1.40030E-010	0.00000E+000	7.60000E-001	9.78322E-004	4	..........a	-327.66
	1065	213.2	7.49938E-001	9.97736E-011	0.00000E+000	7.50000E-001	9.73222E-004	4	..........a	-327.66
	1066	213.4	7.39998E-001	6.95805E-011	0.00000E+000	7.40000E-001	9.83322E-004	4	..........a	-327.66
	1067	213.6	7.29911E-001	4.56426E-011	0.00000E+000	7.30000E-001	9.56422E-004	4	..........a	-327.66
	1068	213.8	7.19938E-001	2.74139E-011	0.00000E+000	7.20000E-001	9.65522E-004	4	..........a	-327.66
	1069	214	7.09886E-001	1.26783E-011	0.00000E+000	7.10000E-001	9.73822E-004	4	..........a	-327.66
	1070	214.2	6.99956E-001	1.00984E-012	0.00000E+000	7.00000E-001	9.68622E-004	4	..........a	-327.66
	1071	214.4	6.89909E-001	-8.38152E-012	0.00000E+000	6.90000E-001	9.65722E-004	4	..........a	-327.66
	1072	214.6	6.79797E-001	-1.90949E-011	0.00000E+000	6.80000E-001	9.70022E-004	4	..........a	-327.66
	1073	214.8	6.69907E-001	-2.74283E-011	0.00000E+000	6.70000E-001	9.73522E-004	4	..........a	-327.66
	1074	215	6.60003E-001	-3.42825E-011	0.00000E+000	6.60000E-001	9.76122E-004	4	..........a	-327.66
	1075	215.2	6.49927E-001	-3.95197E-011	0.00000E+000	6.50000E-001	9.68622E-004	4	..........a	-327.66
	1076	215.4	6.39931E-001	-4.44429E-011	0.00000E+000	6.40000E-001	9.89622E-004	4	..........a	-327.66
	1077	215.6	6.29899E-001	-5.01821E-011	0.00000E+000	6.30000E-001	9.68222E-004	4	..........a	-327.66
	1078	215.8	6.19992E-001	-5.41693E-011	0.00000E+000	6.20000E-001	9.77322E-004	4	..........a	-327.66
	1079	216	6.09970E-001	-5.82774E-011	0.00000E+000	6.10000E-001	9.69922E-004	4	..........a	-327.66
	1080	216.2	5.99939E-001	-6.18766E-011	0.00000E+000	6.00000E-001	9.79222E-004	4	..........a	-327.66
	1081	216.4	5.89932E-001	-6.59267E-011	0.00000E+000	5.90000E-001	9.74422E-004	4	..........a	-327.66
	1082	216.6	5.80014E-001	-6.87548E-011	0.00000E+000	5.80000E-001	9.75222E-004	4	..........a	-327.66
	1083	216.8	5.69972E-001	-7.10599E-011	0.00000E+000	5.70000E-001	9.79922E-004	4	..........a	-327.66
	1084	217	5.59945E-001	-7.38770E-011	0.00000E+000	5.60000E-001	9.79322E-004	4	..........a	-327.66
	1085	217.2	5.49956E-001	-7.55751E-011	0.00000E+000	5.50000E-001	9.68422E-004	4	..........a	-327.66
	1086	217.4	5.40014E-001	-7.81972E-011	0.00000E+000	5.40000E-001	9.82322E-004	4	..........a	-327.66
	1087	217.6	5.29946E-001	-8.13253E-011	0.00000E+000	5.30000E-001	9.57422E-004	4	..........a	-327.66
	1088	217.8	5.19957E-001	-8.31274E-011	0.00000E+000	5.20000E-001	9.83722E-004	4	..........a	-327.66
	1089	218	5.09936E-001	-8.50715E-011	0.00000E+000	5.10000E-001	9.71722E-004	4	..........a	-327.66
	1090	218.2	5.00042E-001	-8.67585E-011	0.00000E+000	5.00000E-001	9.61922E-004	4	..........a	-327.66
	1091	218.4	4.89965E-001	-8.86336E-011	0.00000E+000	4.90000E-001	9.80122E-004	4	..........a	-327.66
	1092	218.6	4.79950E-001	-9.16347E-011	0.00000E+000	4.80000E-001	9.86922E-004	4	..........a	-327.66
	1093	218.8	4.69951E-001	-9.38688E-011	0.00000E+000	4.70000E-001	9.79722E-004	4	..........a	-327.66
	1094	219	4.59998E-001	-9.64039E-011	0.00000E+000	4.60000E-001	9.76122E-004	4	..........a	-327.66
	1095	219.2	4.49984E-001	-9.84510E-011	0.00000E+000	4.50000E-001	9.73222E-004	4	..........a	-327.66
	1096	219.4	4.39976E-001	-1.00688E-010	0.00000E+000	4.40000E-001	9.82022E-004	4	..........a	-327.66
	1097	219.6	4.29961E-001	-1.02039E-010	0.00000E+000	4.30000E-001	9.85722E-004	4	..........a	-327.66
	1098	219.8	4.20014E-001	-1.03813E-010	0.00000E+000	4.20000E-001	9.82822E-004	4	..........a	-327.66
	1099	220	4.09941E-001	-1.06080E-010	0.00000E+000	4.10000E-001	9.74022E-004	4	..........a	-327.66
	1100	220.2	4.00073E-001	-1.08679E-010	0.00000E+000	4.00000E-001	9.67122E-004	4	..........a	-327.66
	1101	220.4	3.89971E-001	-1.10784E-010	0.00000E+000	3.90000E-001	9.63522E-004	4	..........a	-327.66
	1102	220.6	3.80024E-001	-1.12115E-010	0.00000E+000	3.80000E-001	9.79722E-004	4	..........a	-327.66
	1103	220.8	3.69989E-001	-1.14667E-010	0.00000E+000	3.70000E-001	9.62422E-004	4	..........a	-327.66
	1104	221	3.59997E-001	-1.16733E-010	0.00000E+000	3.60000E-001	9.81122E-004	4	..........a	-327.66
	1105	221.2	3.49963E-001	-1.18033E-010	0.00000E+000	3.50000E-001	9.78622E-004	4	..........a	-327.66
	1106	221.4	3.40037E-001	-1.20099E-010	0.00000E+000	3.40000E-001	9.76622E-004	4	..........a	-327.66
	1107	221.6	3.30047E-001	-1.21355E-010	0.00000E+000	3.30000E-001	9.81322E-004	4	..........a	-327.66
	1108	221.8	3.19995E-001	-1.23482E-010	0.00000E+000	3.20000E-001	9.78922E-004	4	..........a	-327.66
	1109	222	3.09985E-001	-1.24606E-010	0.00000E+000	3.10000E-001	9.94722E-004	4	..........a	-327.66
	1110	222.2	3.00025E-001	-1.24848E-010	0.00000E+000	3.00000E-001	9.91922E-004	4	..........a	-327.66
	1111	222.4	2.90012E-001	-1.26060E-010	0.00000E+000	2.90000E-001	9.83322E-004	4	..........a	-327.66
	1112	222.6	2.79983E-001	-1.26852E-010	0.00000E+000	2.80000E-001	9.94422E-004	4	..........a	-327.66
	1113	222.8	2.69965E-001	-1.27779E-010	0.00000E+000	2.70000E-001	9.86022E-004	4	..........a	-327.66
	1114	223	2.60011E-001	-1.28329E-010	0.00000E+000	2.60000E-001	9.93722E-004	4	..........a	-327.66
	1115	223.2	2.50013E-001	-1.28204E-010	0.00000E+000	2.50000E-001	9.64922E-004	4	..........a	-327.66
	1116	223.4	2.39959E-001	-1.28320E-010	0.00000E+000	2.40000E-001	9.86722E-004	4	..........a	-327.66
	1117	223.6	2.29940E-001	-1.27459E-010	0.00000E+000	2.30000E-001	9.71922E-004	4	..........a	-327.66
	1118	223.8	2.20004E-001	-1.28501E-010	0.00000E+000	2.20000E-001	9.80122E-004	4	..........a	-327.66
	1119	224	2.09985E-001	-1.26874E-010	0.00000E+000	2.10000E-001	9.80222E-004	4	..........a	-327.66
	1120	224.2	2.00000E-001	-1.27286E-010	0.00000E+000	2.00000E-001	9.87422E-004	4	..........a	-327.66