File: example_project/raw_outputs/20240509_ZZZG_GM0016_HL03_E15_CV50.DTA
EXPLAIN
TAG	CV
TITLE	LABEL	Cyclic Voltammetry	Test &Identifier
DATE	LABEL	5/9/2024	Date
TIME	LABEL	15:37:17	Time
NOTES	NOTES	1	&Notes...

PSTAT	PSTAT	REF600P-43058	Potentiostat
VINIT	POTEN	0.00000E+000	T	Initial &E (V)
VLIMIT1	POTEN	8.00000E-001	F	Scan Limit &1 (V)
VLIMIT2	POTEN	-6.00000E-001	F	Scan Limit &2 (V)
VFINAL	POTEN	0.00000E+000	T	Final &E (V)
SCANRATE	QUANT	4.99999E+001	&Scan Rate (mV/s)
STEPSIZE	QUANT	1.00000E+001	St&ep Size (mV)
CYCLES	IQUANT	4	C&ycles (#)
IMODE	SELECTOR	0	I/E Range &Mode
IRANGE	QUANT	1.00000E-005	&Max Current (mA)
AREA	QUANT	1.00000E+000	Electrode &Area (cm^2)
ELECTRODETYPE	SELECTOR	0	Electrode Type
STRIPPING	TOGGLE	F	Used for Stripping
POLARITY	TOGGLE	F	Signal Polarity
CONDIT	TWOPARAM	F	1.50000E+001	0.00000E+000	Conditionin&g	Time(s)	E(V)
DELAY	TWOPARAM	T	1.00000E+001	0.00000E+000	Init. De&lay	Time(s)	Stab.(mV/s)
EQDELAY	QUANT	1.00000E+001	Equil. &Time (s)
IRCOMP	SELECTOR	0	IRCom&p
PFCOR	QUANT	5.00000E+001	PF Corr. (ohm)
SAMPLINGMODE	SELECTOR	1	Sampling &Mode
OCVCURVE	TABLE	39
	Pt	T	Vf	Vm	Ach	Over	Temp
	#	s	V vs. Ref.	V	V	bits	deg C
	0	0.258333	-2.18740E-001	-2.18740E-001	2.46392E-004	..........a	-327.66
	1	0.516667	-2.18744E-001	-2.18923E-001	2.37526E-004	..........a	-327.66
	2	0.775	-2.18765E-001	-2.19104E-001	2.24526E-004	..........a	-327.66
	3	1.03333	-2.18827E-001	-2.19277E-001	2.27592E-004	..........a	-327.66
	4	1.29167	-2.18938E-001	-2.19447E-001	2.32326E-004	..........a	-327.66
	5	1.55	-2.19087E-001	-2.19608E-001	2.33326E-004	..........a	-327.66
	6	1.80833	-2.19255E-001	-2.19776E-001	2.27592E-004	..........a	-327.66
	7	2.06667	-2.19426E-001	-2.19950E-001	2.32059E-004	..........a	-327.66
	8	2.325	-2.19597E-001	-2.20116E-001	2.31792E-004	..........a	-327.66
	9	2.58333	-2.19766E-001	-2.20284E-001	2.35526E-004	..........a	-327.66
	10	2.84167	-2.19935E-001	-2.20465E-001	2.19526E-004	..........a	-327.66
	11	3.1	-2.20105E-001	-2.20645E-001	2.33126E-004	..........a	-327.66
	12	3.35833	-2.20277E-001	-2.20828E-001	2.38326E-004	..........a	-327.66
	13	3.61667	-2.20453E-001	-2.21001E-001	2.24459E-004	..........a	-327.66
	14	3.875	-2.20631E-001	-2.21185E-001	2.37926E-004	..........a	-327.66
	15	4.13333	-2.20811E-001	-2.21379E-001	2.27926E-004	..........a	-327.66
	16	4.39167	-2.20992E-001	-2.21549E-001	2.33592E-004	..........a	-327.66
	17	4.65	-2.21174E-001	-2.21721E-001	2.14926E-004	..........a	-327.66
	18	4.90833	-2.21355E-001	-2.21897E-001	2.29259E-004	..........a	-327.66
	19	5.16667	-2.21533E-001	-2.22072E-001	2.23992E-004	..........a	-327.66
	20	5.425	-2.21709E-001	-2.22248E-001	2.28726E-004	..........a	-327.66
	21	5.68333	-2.21882E-001	-2.22327E-001	2.30326E-004	..........a	-327.66
	22	5.94167	-2.22041E-001	-2.22159E-001	2.32526E-004	..........a	-327.66
	23	6.2	-2.22159E-001	-2.22226E-001	2.26392E-004	..........a	-327.66
	24	6.45833	-2.22220E-001	-2.22373E-001	2.23992E-004	..........a	-327.66
	25	6.71667	-2.22251E-001	-2.22506E-001	2.37126E-004	..........a	-327.66
	26	6.975	-2.22297E-001	-2.22650E-001	2.36126E-004	..........a	-327.66
	27	7.23333	-2.22382E-001	-2.22827E-001	2.40659E-004	..........a	-327.66
	28	7.49167	-2.22504E-001	-2.23002E-001	2.32192E-004	..........a	-327.66
	29	7.75	-2.22651E-001	-2.23179E-001	2.18259E-004	..........a	-327.66
	30	8.00833	-2.22815E-001	-2.23362E-001	2.26859E-004	..........a	-327.66
	31	8.26667	-2.22989E-001	-2.23538E-001	2.44459E-004	..........a	-327.66
	32	8.525	-2.23166E-001	-2.23702E-001	2.35326E-004	..........a	-327.66
	33	8.78333	-2.23343E-001	-2.23852E-001	2.38659E-004	..........a	-327.66
	34	9.04167	-2.23516E-001	-2.24014E-001	2.31992E-004	..........a	-327.66
	35	9.3	-2.23682E-001	-2.24171E-001	2.38659E-004	..........a	-327.66
	36	9.5583	-2.23843E-001	-2.24318E-001	2.18192E-004	..........a	-327.66
	37	9.8167	-2.24000E-001	-2.24457E-001	2.22392E-004	..........a	-327.66
	38	10.075	-2.24153E-001	-2.24597E-001	2.24726E-004	..........a	-327.66
EOC	QUANT	-0.2241533	Open Circuit (V)
PSTATMODEL	IQUANT	7	Pstat Model
PSTATSECTION	LABEL	REF600P-43058	Pstat Section
PSTATSERIALNO	LABEL	43058	Pstat Serial Number
CTRLMODE	IQUANT	1	Control Mode
ELECTROMETER	IQUANT	0	RE=0 or CS=1
IESTAB	IQUANT	2	I/E Stability
CASPEED	IQUANT	4	Control Amp Speed
CONVENTION	IQUANT	1	Current Convention
ICHRANGE	IQUANT	2	Ich Range
ICHRANGEMODE	TOGGLE	F	Ich Auto Range
ICHOFFSETENABLE	TOGGLE	F	Ich Offset Enable
ICHOFFSET	QUANT	0	Ich Offset (V)
ICHFILTER	IQUANT	2	Ich Filter
VCHRANGE	IQUANT	2	Vch Range
VCHRANGEMODE	TOGGLE	F	Vch Auto Range
VCHOFFSETENABLE	TOGGLE	F	Vch Offset Enable
VCHOFFSET	QUANT	0	Vch Offset (V)
VCHFILTER	IQUANT	2	Vch Filter
ACHRANGE	IQUANT	2	Ach Range
ACHOFFSETENABLE	TOGGLE	F	Ach Offset Enable
ACHOFFSET	QUANT	0	Ach Offset (V)
ACHFILTER	IQUANT	1	Ach Filter
IERANGELOWERLIMIT	IQUANT	1	I/E Range Lower Limit
IERANGEMODE	TOGGLE	T	I/E AutoRange
IERANGE	IQUANT	4	I/E Range
POSFEEDENABLE	TOGGLE	F	Positive Feedback IR Comp
POSFEEDRESISTANCE	QUANT	0	Positive Feedback Resistance (ohm)
ACHSELECT	IQUANT	4	Ach Select
SENSECABLEID	IQUANT	7	Sense Cable ID
PWRCABLEID	IQUANT	7	Power Cable ID
DCCALDATE	LABEL	3/22/2024	DC Calibration Date
ACCALDATE	LABEL	3/22/2024	AC Calibration Date
THERMOSELECT	IQUANT	1	Thermo Select
FRAMEWORKVERSION	LABEL	7.8.4	Framework Version
INSTRUMENTVERSION	LABEL	4.42	Instrument Version
CURVE1	TABLE
	Pt	T	Vf	Im	Vu	Sig	Ach	IERange	Over	Temp
	#	s	V vs. Ref.	A	V	V	V	#	bits	deg C
	0	0.2	-2.24074E-001	4.40652E-009	0.00000E+000	-2.24150E-001	9.96692E-004	5	..........a	-327.66
	3	0.8	-1.94081E-001	5.99624E-008	0.00000E+000	-1.94150E-001	9.74592E-004	5	..........a	-327.66
	6	1.4	-1.64225E-001	8.96374E-008	0.00000E+000	-1.64150E-001	9.82992E-004	5	..........a	-327.66
	9	2	-1.34182E-001	1.12783E-007	0.00000E+000	-1.34150E-001	9.97592E-004	5	..........a	-327.66
	12	2.6	-1.04179E-001	1.34398E-007	0.00000E+000	-1.04150E-001	9.93192E-004	5	..........a	-327.66
	15	3.2	-7.40879E-002	1.54904E-007	0.00000E+000	-7.41500E-002	9.90892E-004	5	..........a	-327.66
	18	3.8	-4.41928E-002	1.75022E-007	0.00000E+000	-4.41500E-002	9.80992E-004	5	..........a	-327.66
	21	4.4	-1.41829E-002	1.94592E-007	0.00000E+000	-1.41500E-002	9.79992E-004	5	..........a	-327.66
	24	5	1.58108E-002	2.14510E-007	0.00000E+000	1.58500E-002	9.85192E-004	5	..........a	-327.66
	27	5.6	4.59221E-002	2.35732E-007	0.00000E+000	4.58500E-002	1.00449E-003	5	..........a	-327.66
	30	6.2	7.57754E-002	2.57814E-007	0.00000E+000	7.58500E-002	9.90592E-004	5	..........a	-327.66
	33	6.8	1.05764E-001	2.82581E-007	0.00000E+000	1.05850E-001	9.87192E-004	5	..........a	-327.66
	36	7.4	1.35781E-001	3.13430E-007	0.00000E+000	1.35850E-001	9.86492E-004	5	..........a	-327.66
	39	8	1.65785E-001	3.51228E-007	0.00000E+000	1.65850E-001	9.83992E-004	5	..........a	-327.66
	42	8.6	1.95738E-001	3.80755E-007	0.00000E+000	1.95850E-001	9.93892E-004	5	..........a	-327.66
	45	9.2	2.25642E-001	3.98841E-007	0.00000E+000	2.25850E-001	9.81092E-004	5	..........a	-327.66
	48	9.8	2.55629E-001	4.12411E-007	0.00000E+000	2.55850E-001	9.99892E-004	5	..........a	-327.66
	51	10.4	2.85717E-001	4.19903E-007	0.00000E+000	2.85850E-001	9.84392E-004	5	..........a	-327.66
	54	11	3.15687E-001	4.27491E-007	0.00000E+000	3.15850E-001	9.79992E-004	5	..........a	-327.66
	57	11.6	3.45700E-001	4.37360E-007	0.00000E+000	3.45850E-001	9.81992E-004	5	..........a	-327.66
	60	12.2	3.75628E-001	4.49420E-007	0.00000E+000	3.75850E-001	1.00379E-003	5	..........a	-327.66
	63	12.8	4.05720E-001	4.60435E-007	0.00000E+000	4.05850E-001	9.84792E-004	5	..........a	-327.66
	66	13.4	4.35570E-001	4.68233E-007	0.00000E+000	4.35850E-001	9.96992E-004	5	..........a	-327.66
	69	14	4.65581E-001	4.79175E-007	0.00000E+000	4.65850E-001	1.00959E-003	5	..........a	-327.66
	72	14.6	4.95645E-001	4.90146E-007	0.00000E+000	4.95850E-001	9.84492E-004	5	..........a	-327.66
	75	15.2	5.25703E-001	5.02742E-007	0.00000E+000	5.25850E-001	1.01099E-003	5	..........a	-327.66
	78	15.8	5.55575E-001	5.18480E-007	0.00000E+000	5.55850E-001	9.93992E-004	5	..........a	-327.66
	81	16.4	5.85541E-001	5.38859E-007	0.00000E+000	5.85850E-001	9.89592E-004	5	..........a	-327.66
	84	17	6.15808E-001	5.66999E-007	0.00000E+000	6.15850E-001	9.84892E-004	6	..........a	-327.66
	87	17.6	6.45884E-001	5.93923E-007	0.00000E+000	6.45850E-001	9.91592E-004	6	..........a	-327.66
	90	18.2	6.75802E-001	6.25274E-007	0.00000E+000	6.75850E-001	1.00269E-003	6	..........a	-327.66
	93	18.8	7.05819E-001	6.64939E-007	0.00000E+000	7.05850E-001	1.00379E-003	6	..........a	-327.66
	96	19.4	7.35778E-001	7.03323E-007	0.00000E+000	7.35850E-001	9.90292E-004	6	..........a	-327.66
	99	20	7.65917E-001	7.55961E-007	0.00000E+000	7.65850E-001	9.99392E-004	6	..........a	-327.66
	102	20.6	7.95779E-001	8.07190E-007	0.00000E+000	7.95850E-001	1.00129E-003	6	..........a	-327.66
	105	21.2	7.65914E-001	6.02276E-007	0.00000E+000	7.65850E-001	9.85192E-004	6	..........a	-327.66
	108	21.8	7.35811E-001	4.83987E-007	0.00000E+000	7.35850E-001	9.97792E-004	6	..........a	-327.66
	111	22.4	7.05626E-001	3.90757E-007	0.00000E+000	7.05850E-001	9.94692E-004	5	..........a	-327.66
	114	23	6.75683E-001	3.18887E-007	0.00000E+000	6.75850E-001	9.93092E-004	5	..........a	-327.66
	117	23.6	6.45735E-001	2.60450E-007	0.00000E+000	6.45850E-001	9.77892E-004	5	..........a	-327.66
	120	24.2	6.15713E-001	2.12066E-007	0.00000E+000	6.15850E-001	9.96692E-004	5	..........a	-327.66
	123	24.8	5.85729E-001	1.69904E-007	0.00000E+000	5.85850E-001	1.01679E-003	5	..........a	-327.66
	126	25.4	5.55797E-001	1.32568E-007	0.00000E+000	5.55850E-001	9.67792E-004	5	..........a	-327.66
	129	26	5.25906E-001	9.99740E-008	0.00000E+000	5.25850E-001	9.90192E-004	5	..........a	-327.66
	132	26.6	4.95822E-001	6.76788E-008	0.00000E+000	4.95850E-001	9.96892E-004	5	..........a	-327.66
	135	27.2	4.65823E-001	3.72340E-008	0.00000E+000	4.65850E-001	9.90092E-004	5	..........a	-327.66
	138	27.8	4.35837E-001	8.00581E-009	0.00000E+000	4.35850E-001	9.96192E-004	5	..........a	-327.66
	141	28.4	4.05970E-001	-1.94067E-008	0.00000E+000	4.05850E-001	1.00989E-003	5	..........a	-327.66
	144	29	3.75900E-001	-4.52905E-008	0.00000E+000	3.75850E-001	1.00639E-003	5	..........a	-327.66
	147	29.6	3.45980E-001	-6.96165E-008	0.00000E+000	3.45850E-001	9.77792E-004	5	..........a	-327.66
	150	30.2	3.15952E-001	-9.20377E-008	0.00000E+000	3.15850E-001	9.90192E-004	5	..........a	-327.66
	153	30.8	2.85973E-001	-1.12816E-007	0.00000E+000	2.85850E-001	1.00229E-003	5	..........a	-327.66
	156	31.4	2.55918E-001	-1.32107E-007	0.00000E+000	2.55850E-001	9.84692E-004	5	..........a	-327.66
	159	32	2.25946E-001	-1.50487E-007	0.00000E+000	2.25850E-001	9.79992E-004	5	..........a	-327.66
	162	32.6	1.96066E-001	-1.68200E-007	0.00000E+000	1.95850E-001	9.69092E-004	5	..........a	-327.66
	165	33.2	1.66063E-001	-1.87263E-007	0.00000E+000	1.65850E-001	9.95092E-004	5	..........a	-327.66
	168	33.8	1.36032E-001	-2.08245E-007	0.00000E+000	1.35850E-001	1.00009E-003	5	..........a	-327.66
	171	34.4	1.06021E-001	-2.30080E-007	0.00000E+000	1.05850E-001	9.99192E-004	5	..........a	-327.66
	174	35	7.60837E-002	-2.48178E-007	0.00000E+000	7.58500E-002	9.80592E-004	5	..........a	-327.66
	177	35.6	4.60542E-002	-2.58706E-007	0.00000E+000	4.58500E-002	9.87492E-004	5	..........a	-327.66
	180	36.2	1.60226E-002	-2.67631E-007	0.00000E+000	1.58500E-002	9.76892E-004	5	..........a	-327.66
	183	36.8	-1.39247E-002	-2.78055E-007	0.00000E+000	-1.41500E-002	9.92992E-004	5	..........a	-327.66
	186	37.4	-4.39135E-002	-2.86805E-007	0.00000E+000	-4.41500E-002	9.77692E-004	5	..........a	-327.66
	189	38	-7.39197E-002	-2.94676E-007	0.00000E+000	-7.41500E-002	9.95292E-004	5	..........a	-327.66
	192	38.6	-1.03982E-001	-3.03092E-007	0.00000E+000	-1.04150E-001	9.82492E-004	5	..........a	-327.66
	195	39.2	-1.33970E-001	-3.09356E-007	0.00000E+000	-1.34150E-001	9.84792E-004	5	..........a	-327.66
	198	39.8	-1.63891E-001	-3.15402E-007	0.00000E+000	-1.64150E-001	9.89892E-004	5	..........a	-327.66
	201	40.4	-1.93894E-001	-3.21855E-007	0.00000E+000	-1.94150E-001	9.76592E-004	5	..........a	-327.66
	204	41	-2.23907E-001	-3.27928E-007	0.00000E+000	-2.24150E-001	9.93292E-004	5	..........a	-327.66
	207	41.6	-2.53891E-001	-3.33253E-007	0.00000E+000	-2.54150E-001	1.00269E-003	5	..........a	-327.66
	210	42.2	-2.83800E-001	-3.39026E-007	0.00000E+000	-2.84150E-001	9.90392E-004	5	..........a	-327.66
	213	42.8	-3.13894E-001	-3.45714E-007	0.00000E+000	-3.14150E-001	9.84292E-004	5	..........a	-327.66
	216	43.4	-3.43828E-001	-3.53118E-007	0.00000E+000	-3.44150E-001	9.88992E-004	5	..........a	-327.66
	219	44	-3.73851E-001	-3.60321E-007	0.00000E+000	-3.74150E-001	9.96392E-004	5	..........a	-327.66
	222	44.6	-4.03830E-001	-3.66808E-007	0.00000E+000	-4.04150E-001	9.91792E-004	5	..........a	-327.66
	225	45.2	-4.33839E-001	-3.73182E-007	0.00000E+000	-4.34150E-001	9.82892E-004	5	..........a	-327.66
	228	45.8	-4.63825E-001	-3.76294E-007	0.00000E+000	-4.64150E-001	9.80292E-004	5	..........a	-327.66
	231	46.4	-4.93831E-001	-3.78524E-007	0.00000E+000	-4.94150E-001	9.87992E-004	5	..........a	-327.66
	234	47	-5.23761E-001	-3.80294E-007	0.00000E+000	-5.24150E-001	9.74092E-004	5	..........a	-327.66
	237	47.6	-5.53826E-001	-3.82529E-007	0.00000E+000	-5.54150E-001	9.81092E-004	5	..........a	-327.66
	240	48.2	-5.83852E-001	-3.86770E-007	0.00000E+000	-5.84150E-001	9.85892E-004	5	..........a	-327.66
	242	48.6	-6.03794E-001	-3.88857E-007	0.00000E+000	-6.04150E-001	9.77692E-004	5	..........a	-327.66
CURVE2	TABLE
	Pt	T	Vf	Im	Vu	Sig	Ach	IERange	Over	Temp
	#	s	V vs. Ref.	A	V	V	V	#	bits	deg C
	243	48.8	-5.89736E-001	-3.08295E-007	0.00000E+000	-5.90000E-001	9.83892E-004	5	..........a	-327.66
	246	49.4	-5.59772E-001	-2.10655E-007	0.00000E+000	-5.60000E-001	9.85592E-004	5	..........a	-327.66
	249	50	-5.29804E-001	-1.48668E-007	0.00000E+000	-5.30000E-001	9.98792E-004	5	..........a	-327.66
	252	50.6	-4.99792E-001	-1.03142E-007	0.00000E+000	-5.00000E-001	9.75392E-004	5	..........a	-327.66
	255	51.2	-4.69819E-001	-6.66386E-008	0.00000E+000	-4.70000E-001	9.78292E-004	5	..........a	-327.66
	258	51.8	-4.39858E-001	-3.62067E-008	0.00000E+000	-4.40000E-001	9.76492E-004	5	..........a	-327.66
	261	52.4	-4.09869E-001	-1.00266E-008	0.00000E+000	-4.10000E-001	9.85592E-004	5	..........a	-327.66
	264	53	-3.79865E-001	1.33525E-008	0.00000E+000	-3.80000E-001	9.93992E-004	5	..........a	-327.66
	267	53.6	-3.49905E-001	3.46485E-008	0.00000E+000	-3.50000E-001	1.00509E-003	5	..........a	-327.66
	270	54.2	-3.19907E-001	5.36058E-008	0.00000E+000	-3.20000E-001	9.77492E-004	5	..........a	-327.66
	273	54.8	-2.89934E-001	7.29748E-008	0.00000E+000	-2.90000E-001	9.80292E-004	5	..........a	-327.66
	276	55.4	-2.59881E-001	9.15962E-008	0.00000E+000	-2.60000E-001	9.85592E-004	5	..........a	-327.66
	279	56	-2.30000E-001	1.09451E-007	0.00000E+000	-2.30000E-001	9.96492E-004	5	..........a	-327.66
	282	56.6	-2.00034E-001	1.27151E-007	0.00000E+000	-2.00000E-001	9.82092E-004	5	..........a	-327.66
	285	57.2	-1.69964E-001	1.44505E-007	0.00000E+000	-1.70000E-001	9.90592E-004	5	..........a	-327.66
	288	57.8	-1.40006E-001	1.62396E-007	0.00000E+000	-1.40000E-001	9.80192E-004	5	..........a	-327.66
	291	58.4	-1.10050E-001	1.79716E-007	0.00000E+000	-1.10000E-001	9.96692E-004	5	..........a	-327.66
	294	59	-8.00629E-002	1.97945E-007	0.00000E+000	-8.00000E-002	9.92692E-004	5	..........a	-327.66
	297	59.6	-4.99996E-002	2.15288E-007	0.00000E+000	-5.00000E-002	9.87892E-004	5	..........a	-327.66
	300	60.2	-2.00618E-002	2.33167E-007	0.00000E+000	-2.00000E-002	9.82492E-004	5	..........a	-327.66
	303	60.8	9.95849E-003	2.51623E-007	0.00000E+000	1.00000E-002	9.88192E-004	5	..........a	-327.66
	306	61.4	3.99205E-002	2.70670E-007	0.00000E+000	4.00000E-002	9.82792E-004	5	..........a	-327.66
	309	62	6.99450E-002	2.91331E-007	0.00000E+000	7.00000E-002	1.00819E-003	5	..........a	-327.66
	312	62.6	9.99021E-002	3.12895E-007	0.00000E+000	1.00000E-001	9.82092E-004	5	..........a	-327.66
	315	63.2	1.29863E-001	3.36374E-007	0.00000E+000	1.30000E-001	9.99192E-004	5	..........a	-327.66
	318	63.8	1.59879E-001	3.61859E-007	0.00000E+000	1.60000E-001	9.88692E-004	5	..........a	-327.66
	321	64.4	1.89925E-001	3.88161E-007	0.00000E+000	1.90000E-001	9.86992E-004	5	..........a	-327.66
	324	65	2.19754E-001	4.02388E-007	0.00000E+000	2.20000E-001	9.78592E-004	5	..........a	-327.66
	327	65.6	2.49799E-001	4.13941E-007	0.00000E+000	2.50000E-001	9.79992E-004	5	..........a	-327.66
	330	66.2	2.79805E-001	4.15905E-007	0.00000E+000	2.80000E-001	9.94592E-004	5	..........a	-327.66
	333	66.8	3.09919E-001	4.20858E-007	0.00000E+000	3.10000E-001	9.87692E-004	5	..........a	-327.66
	336	67.4	3.39841E-001	4.26408E-007	0.00000E+000	3.40000E-001	9.88292E-004	5	..........a	-327.66
	339	68	3.69826E-001	4.34268E-007	0.00000E+000	3.70000E-001	9.92192E-004	5	..........a	-327.66
	342	68.6	3.99813E-001	4.45989E-007	0.00000E+000	4.00000E-001	9.94692E-004	5	..........a	-327.66
	345	69.2	4.29892E-001	4.54976E-007	0.00000E+000	4.30000E-001	9.87292E-004	5	..........a	-327.66
	348	69.8	4.59779E-001	4.65687E-007	0.00000E+000	4.60000E-001	1.00419E-003	5	..........a	-327.66
	351	70.4	4.89743E-001	4.70218E-007	0.00000E+000	4.90000E-001	9.81592E-004	5	..........a	-327.66
	354	71	5.19781E-001	4.80504E-007	0.00000E+000	5.20000E-001	9.85792E-004	5	..........a	-327.66
	357	71.6	5.49806E-001	4.92493E-007	0.00000E+000	5.50000E-001	9.78492E-004	5	..........a	-327.66
	360	72.2	5.79754E-001	5.07266E-007	0.00000E+000	5.80000E-001	9.87392E-004	5	..........a	-327.66
[...]
	944	189	7.79964E-001	6.05489E-007	0.00000E+000	7.80000E-001	1.00099E-003	6	..........a	-327.66
	947	189.6	7.50037E-001	4.76562E-007	0.00000E+000	7.50000E-001	1.02469E-003	6	..........a	-327.66
	950	190.2	7.19777E-001	3.84625E-007	0.00000E+000	7.20000E-001	1.00039E-003	5	..........a	-327.66
	953	190.8	6.89806E-001	3.13435E-007	0.00000E+000	6.90000E-001	1.00259E-003	5	..........a	-327.66
	956	191.4	6.59845E-001	2.54396E-007	0.00000E+000	6.60000E-001	9.98592E-004	5	..........a	-327.66
	959	192	6.29971E-001	2.04742E-007	0.00000E+000	6.30000E-001	9.87892E-004	5	..........a	-327.66
	962	192.6	5.99917E-001	1.62140E-007	0.00000E+000	6.00000E-001	9.83792E-004	5	..........a	-327.66
	965	193.2	5.69918E-001	1.24545E-007	0.00000E+000	5.70000E-001	1.01119E-003	5	..........a	-327.66
	968	193.8	5.39976E-001	9.06023E-008	0.00000E+000	5.40000E-001	9.96692E-004	5	..........a	-327.66
	971	194.4	5.09985E-001	5.95754E-008	0.00000E+000	5.10000E-001	9.97392E-004	5	..........a	-327.66
	974	195	4.79926E-001	3.05658E-008	0.00000E+000	4.80000E-001	1.00069E-003	5	..........a	-327.66
	977	195.6	4.49888E-001	5.00935E-009	0.00000E+000	4.50000E-001	9.98492E-004	5	..........a	-327.66
	980	196.2	4.20070E-001	-2.30315E-008	0.00000E+000	4.20000E-001	9.82692E-004	5	..........a	-327.66
	983	196.8	3.90087E-001	-4.97757E-008	0.00000E+000	3.90000E-001	9.92492E-004	5	..........a	-327.66
	986	197.4	3.60051E-001	-7.49134E-008	0.00000E+000	3.60000E-001	1.00459E-003	5	..........a	-327.66
	989	198	3.30089E-001	-9.80242E-008	0.00000E+000	3.30000E-001	9.99592E-004	5	..........a	-327.66
	992	198.6	3.00192E-001	-1.19366E-007	0.00000E+000	3.00000E-001	9.76192E-004	5	..........a	-327.66
	995	199.2	2.70128E-001	-1.39224E-007	0.00000E+000	2.70000E-001	9.99792E-004	5	..........a	-327.66
	998	199.8	2.40116E-001	-1.57318E-007	0.00000E+000	2.40000E-001	9.99492E-004	5	..........a	-327.66
	1001	200.4	2.10135E-001	-1.74482E-007	0.00000E+000	2.10000E-001	1.00209E-003	5	..........a	-327.66
	1004	201	1.80256E-001	-1.92227E-007	0.00000E+000	1.80000E-001	9.81092E-004	5	..........a	-327.66
	1007	201.6	1.50194E-001	-2.11131E-007	0.00000E+000	1.50000E-001	9.74392E-004	5	..........a	-327.66
	1010	202.2	1.20193E-001	-2.29784E-007	0.00000E+000	1.20000E-001	1.00169E-003	5	..........a	-327.66
	1013	202.8	9.02154E-002	-2.45071E-007	0.00000E+000	9.00000E-002	9.82892E-004	5	..........a	-327.66
	1016	203.4	6.02611E-002	-2.56044E-007	0.00000E+000	6.00000E-002	9.85092E-004	5	..........a	-327.66
	1019	204	3.02055E-002	-2.68218E-007	0.00000E+000	3.00000E-002	9.83592E-004	5	..........a	-327.66
	1022	204.6	1.94392E-004	-2.80206E-007	0.00000E+000	7.45058E-009	9.88992E-004	5	..........a	-327.66
	1025	205.2	-2.97961E-002	-2.90756E-007	0.00000E+000	-3.00000E-002	9.97692E-004	5	..........a	-327.66
	1028	205.8	-5.96817E-002	-2.99409E-007	0.00000E+000	-6.00000E-002	9.83392E-004	5	..........a	-327.66
	1031	206.4	-8.97972E-002	-3.07087E-007	0.00000E+000	-9.00000E-002	9.94292E-004	5	..........a	-327.66
	1034	207	-1.19793E-001	-3.13837E-007	0.00000E+000	-1.20000E-001	1.00819E-003	5	..........a	-327.66
	1037	207.6	-1.49790E-001	-3.19861E-007	0.00000E+000	-1.50000E-001	9.82192E-004	5	..........a	-327.66
	1040	208.2	-1.79687E-001	-3.25578E-007	0.00000E+000	-1.80000E-001	1.01349E-003	5	..........a	-327.66
	1043	208.8	-2.09749E-001	-3.31857E-007	0.00000E+000	-2.10000E-001	1.00019E-003	5	..........a	-327.66
	1046	209.4	-2.39714E-001	-3.36702E-007	0.00000E+000	-2.40000E-001	1.01189E-003	5	..........a	-327.66
	1049	210	-2.69741E-001	-3.41117E-007	0.00000E+000	-2.70000E-001	9.87892E-004	5	..........a	-327.66
	1052	210.6	-2.99679E-001	-3.46919E-007	0.00000E+000	-3.00000E-001	9.90992E-004	5	..........a	-327.66
	1055	211.2	-3.29739E-001	-3.54282E-007	0.00000E+000	-3.30000E-001	1.00849E-003	5	..........a	-327.66
	1058	211.8	-3.59704E-001	-3.60857E-007	0.00000E+000	-3.60000E-001	1.01149E-003	5	..........a	-327.66
	1061	212.4	-3.89721E-001	-3.67124E-007	0.00000E+000	-3.90000E-001	9.96692E-004	5	..........a	-327.66
	1064	213	-4.19592E-001	-3.72077E-007	0.00000E+000	-4.20000E-001	9.86692E-004	5	..........a	-327.66
	1067	213.6	-4.49706E-001	-3.75437E-007	0.00000E+000	-4.50000E-001	9.95092E-004	5	..........a	-327.66
	1070	214.2	-4.79681E-001	-3.77411E-007	0.00000E+000	-4.80000E-001	9.98292E-004	5	..........a	-327.66
	1073	214.8	-5.09694E-001	-3.78595E-007	0.00000E+000	-5.10000E-001	9.82792E-004	5	..........a	-327.66
	1076	215.4	-5.39633E-001	-3.79933E-007	0.00000E+000	-5.40000E-001	9.93092E-004	5	..........a	-327.66
	1079	216	-5.69703E-001	-3.82356E-007	0.00000E+000	-5.70000E-001	1.00569E-003	5	..........a	-327.66
	1082	216.6	-5.99668E-001	-3.86693E-007	0.00000E+000	-6.00000E-001	9.93292E-004	5	..........a	-327.66
CURVE5	TABLE
	Pt	T	Vf	Im	Vu	Sig	Ach	IERange	Over	Temp
	#	s	V vs. Ref.	A	V	V	V	#	bits	deg C
	1083	216.8	-5.89727E-001	-3.19794E-007	0.00000E+000	-5.90000E-001	1.00049E-003	5	..........a	-327.66
	1084	217	-5.79693E-001	-2.75772E-007	0.00000E+000	-5.80000E-001	1.00579E-003	5	..........a	-327.66
	1085	217.2	-5.69775E-001	-2.42396E-007	0.00000E+000	-5.70000E-001	1.00289E-003	5	..........a	-327.66
	1086	217.4	-5.59770E-001	-2.14946E-007	0.00000E+000	-5.60000E-001	1.00509E-003	5	..........a	-327.66
	1087	217.6	-5.49800E-001	-1.91492E-007	0.00000E+000	-5.50000E-001	1.00509E-003	5	..........a	-327.66
	1088	217.8	-5.39716E-001	-1.71083E-007	0.00000E+000	-5.40000E-001	9.67292E-004	5	..........a	-327.66
	1089	218	-5.29806E-001	-1.52779E-007	0.00000E+000	-5.30000E-001	9.93592E-004	5	..........a	-327.66
	1090	218.2	-5.19821E-001	-1.36139E-007	0.00000E+000	-5.20000E-001	1.00099E-003	5	..........a	-327.66
	1091	218.4	-5.09813E-001	-1.20924E-007	0.00000E+000	-5.10000E-001	9.88492E-004	5	..........a	-327.66
	1092	218.6	-4.99798E-001	-1.07006E-007	0.00000E+000	-5.00000E-001	9.84192E-004	5	..........a	-327.66
	1093	218.8	-4.89824E-001	-9.40192E-008	0.00000E+000	-4.90000E-001	9.92892E-004	5	..........a	-327.66
	1094	219	-4.79839E-001	-8.19606E-008	0.00000E+000	-4.80000E-001	1.00019E-003	5	..........a	-327.66
	1095	219.2	-4.69828E-001	-7.06597E-008	0.00000E+000	-4.70000E-001	9.85092E-004	5	..........a	-327.66
	1096	219.4	-4.59789E-001	-5.99759E-008	0.00000E+000	-4.60000E-001	9.90792E-004	5	..........a	-327.66
	1097	219.6	-4.49835E-001	-4.98899E-008	0.00000E+000	-4.50000E-001	9.81992E-004	5	..........a	-327.66
	1098	219.8	-4.39853E-001	-4.02375E-008	0.00000E+000	-4.40000E-001	9.93692E-004	5	..........a	-327.66
	1099	220	-4.29857E-001	-3.10890E-008	0.00000E+000	-4.30000E-001	1.00599E-003	5	..........a	-327.66
	1100	220.2	-4.19808E-001	-2.22774E-008	0.00000E+000	-4.20000E-001	9.96092E-004	5	..........a	-327.66
	1101	220.4	-4.09870E-001	-1.37696E-008	0.00000E+000	-4.10000E-001	9.95492E-004	5	..........a	-327.66
	1102	220.6	-3.99858E-001	-5.57603E-009	0.00000E+000	-4.00000E-001	9.94192E-004	5	..........a	-327.66
	1103	220.8	-3.89960E-001	2.29017E-009	0.00000E+000	-3.90000E-001	9.90592E-004	5	..........a	-327.66
	1104	221	-3.79856E-001	9.61419E-009	0.00000E+000	-3.80000E-001	9.98392E-004	5	..........a	-327.66
	1105	221.2	-3.69876E-001	1.69463E-008	0.00000E+000	-3.70000E-001	9.97592E-004	5	..........a	-327.66
	1106	221.4	-3.59952E-001	2.43139E-008	0.00000E+000	-3.60000E-001	1.01629E-003	5	..........a	-327.66
	1107	221.6	-3.49907E-001	3.17020E-008	0.00000E+000	-3.50000E-001	1.01499E-003	5	..........a	-327.66
	1108	221.8	-3.39854E-001	3.86691E-008	0.00000E+000	-3.40000E-001	9.96792E-004	5	..........a	-327.66
	1109	222	-3.29942E-001	4.55552E-008	0.00000E+000	-3.30000E-001	1.00389E-003	5	..........a	-327.66
	1110	222.2	-3.19900E-001	5.23184E-008	0.00000E+000	-3.20000E-001	9.94092E-004	5	..........a	-327.66
	1111	222.4	-3.09938E-001	5.89172E-008	0.00000E+000	-3.10000E-001	1.00469E-003	5	..........a	-327.66
	1112	222.6	-2.99888E-001	6.56110E-008	0.00000E+000	-3.00000E-001	9.98392E-004	5	..........a	-327.66
	1113	222.8	-2.89942E-001	7.18455E-008	0.00000E+000	-2.90000E-001	1.01069E-003	5	..........a	-327.66
	1114	223	-2.79946E-001	7.82336E-008	0.00000E+000	-2.80000E-001	9.96392E-004	5	..........a	-327.66
	1115	223.2	-2.69917E-001	8.45664E-008	0.00000E+000	-2.70000E-001	9.92392E-004	5	..........a	-327.66
	1116	223.4	-2.59888E-001	9.07822E-008	0.00000E+000	-2.60000E-001	1.00179E-003	5	..........a	-327.66
	1117	223.6	-2.49926E-001	9.69554E-008	0.00000E+000	-2.50000E-001	9.95292E-004	5	..........a	-327.66
	1118	223.8	-2.39976E-001	1.03001E-007	0.00000E+000	-2.40000E-001	9.94392E-004	5	..........a	-327.66
	1119	224	-2.29982E-001	1.09015E-007	0.00000E+000	-2.30000E-001	9.94092E-004	5	..........a	-327.66
	1120	224.2	-2.19939E-001	1.15276E-007	0.00000E+000	-2.20000E-001	9.85392E-004	5	..........a	-327.66