File: example_project/raw_outputs/20240509_ZA_GM0016_HL03_E07_CV50.DTA
EXPLAIN
TAG	CV
TITLE	LABEL	Cyclic Voltammetry	Test &Identifier
DATE	LABEL	5/9/2024	Date
TIME	LABEL	13:52:05	Time
NOTES	NOTES	1	&Notes...

PSTAT	PSTAT	REF600P-43058	Potentiostat
VINIT	POTEN	0.00000E+000	T	Initial &E (V)
VLIMIT1	POTEN	8.00000E-001	F	Scan Limit &1 (V)
VLIMIT2	POTEN	-6.00000E-001	F	Scan Limit &2 (V)
VFINAL	POTEN	0.00000E+000	T	Final &E (V)
SCANRATE	QUANT	4.99999E+001	&Scan Rate (mV/s)
STEPSIZE	QUANT	1.00000E+001	St&ep Size (mV)
CYCLES	IQUANT	4	C&ycles (#)
IMODE	SELECTOR	0	I/E Range &Mode
IRANGE	QUANT	1.00000E-005	&Max Current (mA)
AREA	QUANT	1.00000E+000	Electrode &Area (cm^2)
ELECTRODETYPE	SELECTOR	0	Electrode Type
STRIPPING	TOGGLE	F	Used for Stripping
POLARITY	TOGGLE	F	Signal Polarity
CONDIT	TWOPARAM	F	1.50000E+001	0.00000E+000	Conditionin&g	Time(s)	E(V)
DELAY	TWOPARAM	T	1.00000E+001	0.00000E+000	Init. De&lay	Time(s)	Stab.(mV/s)
EQDELAY	QUANT	1.00000E+001	Equil. &Time (s)
IRCOMP	SELECTOR	0	IRCom&p
PFCOR	QUANT	5.00000E+001	PF Corr. (ohm)
SAMPLINGMODE	SELECTOR	1	Sampling &Mode
OCVCURVE	TABLE	39
	Pt	T	Vf	Vm	Ach	Over	Temp
	#	s	V vs. Ref.	V	V	bits	deg C
	0	0.258333	-1.38075E-001	-1.38075E-001	1.92992E-004	..........a	-327.66
	1	0.516667	-1.38076E-001	-1.38133E-001	1.94859E-004	..........a	-327.66
	2	0.775	-1.38083E-001	-1.38201E-001	1.97326E-004	..........a	-327.66
	3	1.03333	-1.38104E-001	-1.38265E-001	2.07392E-004	..........a	-327.66
	4	1.29167	-1.38143E-001	-1.38343E-001	2.06192E-004	..........a	-327.66
	5	1.55	-1.38198E-001	-1.38408E-001	2.02126E-004	..........a	-327.66
	6	1.80833	-1.38263E-001	-1.38477E-001	1.96326E-004	..........a	-327.66
	7	2.06667	-1.38332E-001	-1.38546E-001	1.94592E-004	..........a	-327.66
	8	2.325	-1.38402E-001	-1.38607E-001	1.98726E-004	..........a	-327.66
	9	2.58333	-1.38471E-001	-1.38680E-001	2.01126E-004	..........a	-327.66
	10	2.84167	-1.38539E-001	-1.38744E-001	2.09326E-004	..........a	-327.66
	11	3.1	-1.38606E-001	-1.38813E-001	2.04859E-004	..........a	-327.66
	12	3.35833	-1.38673E-001	-1.38882E-001	1.95992E-004	..........a	-327.66
	13	3.61667	-1.38740E-001	-1.38936E-001	1.89659E-004	..........a	-327.66
	14	3.875	-1.38806E-001	-1.38998E-001	2.02126E-004	..........a	-327.66
	15	4.13333	-1.38871E-001	-1.39062E-001	2.11859E-004	..........a	-327.66
	16	4.39167	-1.38934E-001	-1.39132E-001	2.01126E-004	..........a	-327.66
	17	4.65	-1.38996E-001	-1.39200E-001	1.99926E-004	..........a	-327.66
	18	4.90833	-1.39060E-001	-1.39247E-001	1.95259E-004	..........a	-327.66
	19	5.16667	-1.39124E-001	-1.39307E-001	2.12659E-004	..........a	-327.66
	20	5.425	-1.39186E-001	-1.39373E-001	2.02859E-004	..........a	-327.66
	21	5.68333	-1.39247E-001	-1.39451E-001	1.95059E-004	..........a	-327.66
	22	5.94167	-1.39308E-001	-1.39509E-001	2.03059E-004	..........a	-327.66
	23	6.2	-1.39372E-001	-1.39557E-001	2.06926E-004	..........a	-327.66
	24	6.45833	-1.39437E-001	-1.39628E-001	2.07259E-004	..........a	-327.66
	25	6.71667	-1.39499E-001	-1.39688E-001	2.03659E-004	..........a	-327.66
	26	6.975	-1.39560E-001	-1.39754E-001	1.95059E-004	..........a	-327.66
	27	7.23333	-1.39622E-001	-1.39810E-001	1.90192E-004	..........a	-327.66
	28	7.49167	-1.39684E-001	-1.39866E-001	2.07992E-004	..........a	-327.66
	29	7.75	-1.39745E-001	-1.39923E-001	1.99926E-004	..........a	-327.66
	30	8.00833	-1.39804E-001	-1.39974E-001	1.97126E-004	..........a	-327.66
	31	8.26667	-1.39861E-001	-1.40025E-001	2.09792E-004	..........a	-327.66
	32	8.525	-1.39916E-001	-1.40070E-001	1.99659E-004	..........a	-327.66
	33	8.78333	-1.39968E-001	-1.40116E-001	2.00726E-004	..........a	-327.66
	34	9.04167	-1.40018E-001	-1.40168E-001	2.01126E-004	..........a	-327.66
	35	9.3	-1.40067E-001	-1.40215E-001	1.93792E-004	..........a	-327.66
	36	9.5583	-1.40115E-001	-1.40269E-001	2.09326E-004	..........a	-327.66
	37	9.8167	-1.40164E-001	-1.40328E-001	2.00459E-004	..........a	-327.66
	38	10.075	-1.40215E-001	-1.40384E-001	1.99592E-004	..........a	-327.66
EOC	QUANT	-0.1402146	Open Circuit (V)
PSTATMODEL	IQUANT	7	Pstat Model
PSTATSECTION	LABEL	REF600P-43058	Pstat Section
PSTATSERIALNO	LABEL	43058	Pstat Serial Number
CTRLMODE	IQUANT	1	Control Mode
ELECTROMETER	IQUANT	0	RE=0 or CS=1
IESTAB	IQUANT	2	I/E Stability
CASPEED	IQUANT	4	Control Amp Speed
CONVENTION	IQUANT	1	Current Convention
ICHRANGE	IQUANT	2	Ich Range
ICHRANGEMODE	TOGGLE	F	Ich Auto Range
ICHOFFSETENABLE	TOGGLE	F	Ich Offset Enable
ICHOFFSET	QUANT	0	Ich Offset (V)
ICHFILTER	IQUANT	2	Ich Filter
VCHRANGE	IQUANT	2	Vch Range
VCHRANGEMODE	TOGGLE	F	Vch Auto Range
VCHOFFSETENABLE	TOGGLE	F	Vch Offset Enable
VCHOFFSET	QUANT	0	Vch Offset (V)
VCHFILTER	IQUANT	2	Vch Filter
ACHRANGE	IQUANT	2	Ach Range
ACHOFFSETENABLE	TOGGLE	F	Ach Offset Enable
ACHOFFSET	QUANT	0	Ach Offset (V)
ACHFILTER	IQUANT	1	Ach Filter
IERANGELOWERLIMIT	IQUANT	1	I/E Range Lower Limit
IERANGEMODE	TOGGLE	T	I/E AutoRange
IERANGE	IQUANT	4	I/E Range
POSFEEDENABLE	TOGGLE	F	Positive Feedback IR Comp
POSFEEDRESISTANCE	QUANT	0	Positive Feedback Resistance (ohm)
ACHSELECT	IQUANT	4	Ach Select
SENSECABLEID	IQUANT	7	Sense Cable ID
PWRCABLEID	IQUANT	7	Power Cable ID
DCCALDATE	LABEL	3/22/2024	DC Calibration Date
ACCALDATE	LABEL	3/22/2024	AC Calibration Date
THERMOSELECT	IQUANT	1	Thermo Select
FRAMEWORKVERSION	LABEL	7.8.4	Framework Version
INSTRUMENTVERSION	LABEL	4.42	Instrument Version
CURVE1	TABLE
	Pt	T	Vf	Im	Vu	Sig	Ach	IERange	Over	Temp
	#	s	V vs. Ref.	A	V	V	V	#	bits	deg C
	0	0.2	-1.40150E-001	8.68979E-010	0.00000E+000	-1.40200E-001	9.61592E-004	5	..........a	-327.66
	3	0.8	-1.10220E-001	1.02377E-008	0.00000E+000	-1.10200E-001	9.56192E-004	5	..........a	-327.66
	6	1.4	-8.01496E-002	1.52984E-008	0.00000E+000	-8.02000E-002	9.58392E-004	5	..........a	-327.66
	9	2	-5.00935E-002	1.93930E-008	0.00000E+000	-5.02000E-002	9.55992E-004	5	..........a	-327.66
	12	2.6	-2.01783E-002	2.32257E-008	0.00000E+000	-2.02000E-002	9.59792E-004	5	..........a	-327.66
	15	3.2	9.87524E-003	2.72423E-008	0.00000E+000	9.80000E-003	9.46192E-004	5	..........a	-327.66
	18	3.8	3.98534E-002	3.16242E-008	0.00000E+000	3.98000E-002	9.67592E-004	5	..........a	-327.66
	21	4.4	6.99455E-002	3.66548E-008	0.00000E+000	6.98000E-002	9.64392E-004	5	..........a	-327.66
	24	5	9.98470E-002	4.27486E-008	0.00000E+000	9.98000E-002	9.54292E-004	5	..........a	-327.66
	27	5.6	1.29822E-001	5.01759E-008	0.00000E+000	1.29800E-001	9.50592E-004	5	..........a	-327.66
	30	6.2	1.59818E-001	5.90301E-008	0.00000E+000	1.59800E-001	9.52792E-004	5	..........a	-327.66
	33	6.8	1.89879E-001	6.91671E-008	0.00000E+000	1.89800E-001	9.49592E-004	5	..........a	-327.66
	36	7.4	2.19793E-001	8.03445E-008	0.00000E+000	2.19800E-001	9.46992E-004	5	..........a	-327.66
	39	8	2.49749E-001	9.20347E-008	0.00000E+000	2.49800E-001	9.51592E-004	5	..........a	-327.66
	42	8.6	2.79759E-001	1.03797E-007	0.00000E+000	2.79800E-001	9.62892E-004	5	..........a	-327.66
	45	9.2	3.09872E-001	1.15968E-007	0.00000E+000	3.09800E-001	9.65792E-004	5	..........a	-327.66
	48	9.8	3.39782E-001	1.27978E-007	0.00000E+000	3.39800E-001	9.49192E-004	5	..........a	-327.66
	51	10.4	3.69769E-001	1.39890E-007	0.00000E+000	3.69800E-001	9.52792E-004	5	..........a	-327.66
	54	11	3.99739E-001	1.52195E-007	0.00000E+000	3.99800E-001	9.56892E-004	5	..........a	-327.66
	57	11.6	4.29816E-001	1.64355E-007	0.00000E+000	4.29800E-001	9.52992E-004	5	..........a	-327.66
	60	12.2	4.59675E-001	1.76666E-007	0.00000E+000	4.59800E-001	9.64692E-004	5	..........a	-327.66
	63	12.8	4.89640E-001	1.88254E-007	0.00000E+000	4.89800E-001	9.64892E-004	5	..........a	-327.66
	66	13.4	5.19719E-001	1.99660E-007	0.00000E+000	5.19800E-001	9.60992E-004	5	..........a	-327.66
	69	14	5.49727E-001	2.12305E-007	0.00000E+000	5.49800E-001	9.54192E-004	5	..........a	-327.66
	72	14.6	5.79697E-001	2.26035E-007	0.00000E+000	5.79800E-001	9.56692E-004	5	..........a	-327.66
	75	15.2	6.09669E-001	2.42141E-007	0.00000E+000	6.09800E-001	9.51292E-004	5	..........a	-327.66
	78	15.8	6.39594E-001	2.57591E-007	0.00000E+000	6.39800E-001	9.55292E-004	5	..........a	-327.66
	81	16.4	6.69627E-001	2.76042E-007	0.00000E+000	6.69800E-001	9.45092E-004	5	..........a	-327.66
	84	17	6.99603E-001	2.96114E-007	0.00000E+000	6.99800E-001	9.49992E-004	5	..........a	-327.66
	87	17.6	7.29601E-001	3.18642E-007	0.00000E+000	7.29800E-001	9.49792E-004	5	..........a	-327.66
	90	18.2	7.59590E-001	3.45298E-007	0.00000E+000	7.59800E-001	9.57992E-004	5	..........a	-327.66
	93	18.8	7.89564E-001	3.76901E-007	0.00000E+000	7.89800E-001	9.49992E-004	5	..........a	-327.66
	96	19.4	7.79548E-001	2.89241E-007	0.00000E+000	7.79800E-001	9.45492E-004	5	..........a	-327.66
	99	20	7.49714E-001	2.16106E-007	0.00000E+000	7.49800E-001	9.43092E-004	5	..........a	-327.66
	102	20.6	7.19670E-001	1.70432E-007	0.00000E+000	7.19800E-001	9.65392E-004	5	..........a	-327.66
	105	21.2	6.89658E-001	1.37303E-007	0.00000E+000	6.89800E-001	9.69392E-004	5	..........a	-327.66
	108	21.8	6.59699E-001	1.12835E-007	0.00000E+000	6.59800E-001	9.53492E-004	5	..........a	-327.66
	111	22.4	6.29780E-001	9.66127E-008	0.00000E+000	6.29800E-001	9.48092E-004	5	..........a	-327.66
	114	23	5.99763E-001	8.42916E-008	0.00000E+000	5.99800E-001	9.47392E-004	5	..........a	-327.66
	117	23.6	5.69726E-001	9.81786E-008	0.00000E+000	5.69800E-001	9.59092E-004	5	..........a	-327.66
	120	24.2	5.39759E-001	8.31671E-008	0.00000E+000	5.39800E-001	9.46492E-004	5	..........a	-327.66
	123	24.8	5.09849E-001	6.55882E-008	0.00000E+000	5.09800E-001	9.49892E-004	5	..........a	-327.66
	126	25.4	4.79741E-001	5.11922E-008	0.00000E+000	4.79800E-001	9.68092E-004	5	..........a	-327.66
	129	26	4.49717E-001	4.28295E-008	0.00000E+000	4.49800E-001	9.58092E-004	5	..........a	-327.66
	132	26.6	4.19793E-001	3.34598E-008	0.00000E+000	4.19800E-001	9.41092E-004	5	..........a	-327.66
	135	27.2	3.89886E-001	2.49714E-008	0.00000E+000	3.89800E-001	9.54892E-004	5	..........a	-327.66
	138	27.8	3.59821E-001	1.65192E-008	0.00000E+000	3.59800E-001	9.46892E-004	5	..........a	-327.66
	141	28.4	3.29806E-001	9.71403E-009	0.00000E+000	3.29800E-001	9.60092E-004	5	..........a	-327.66
	144	29	2.99811E-001	2.23013E-009	0.00000E+000	2.99800E-001	9.53992E-004	5	..........a	-327.66
	147	29.6	2.69904E-001	-4.92744E-009	0.00000E+000	2.69800E-001	9.44192E-004	5	..........a	-327.66
	150	30.2	2.39831E-001	-1.19175E-008	0.00000E+000	2.39800E-001	9.61192E-004	5	..........a	-327.66
	153	30.8	2.09808E-001	-1.79847E-008	0.00000E+000	2.09800E-001	9.65992E-004	5	..........a	-327.66
	156	31.4	1.79865E-001	-2.28263E-008	0.00000E+000	1.79800E-001	9.55592E-004	5	..........a	-327.66
	159	32	1.49960E-001	-2.72344E-008	0.00000E+000	1.49800E-001	9.71692E-004	5	..........a	-327.66
	162	32.6	1.19891E-001	-2.91616E-008	0.00000E+000	1.19800E-001	9.67592E-004	5	..........a	-327.66
	165	33.2	8.99265E-002	-3.43807E-008	0.00000E+000	8.98000E-002	9.60792E-004	5	..........a	-327.66
	168	33.8	5.98767E-002	-3.92655E-008	0.00000E+000	5.98000E-002	9.46492E-004	5	..........a	-327.66
	171	34.4	2.99484E-002	-4.40355E-008	0.00000E+000	2.98000E-002	9.58392E-004	5	..........a	-327.66
	174	35	-1.28308E-004	-4.96180E-008	0.00000E+000	-1.99996E-004	9.49092E-004	5	..........a	-327.66
	177	35.6	-3.01040E-002	-5.24609E-008	0.00000E+000	-3.02000E-002	9.58592E-004	5	..........a	-327.66
	180	36.2	-6.01351E-002	-5.57741E-008	0.00000E+000	-6.02000E-002	9.48092E-004	5	..........a	-327.66
	183	36.8	-9.01036E-002	-5.89431E-008	0.00000E+000	-9.02000E-002	9.51692E-004	5	..........a	-327.66
	186	37.4	-1.20148E-001	-6.24531E-008	0.00000E+000	-1.20200E-001	9.70792E-004	5	..........a	-327.66
	189	38	-1.50136E-001	-6.62947E-008	0.00000E+000	-1.50200E-001	9.40992E-004	5	..........a	-327.66
	192	38.6	-1.80138E-001	-7.07385E-008	0.00000E+000	-1.80200E-001	9.62792E-004	5	..........a	-327.66
	195	39.2	-2.10016E-001	-7.51814E-008	0.00000E+000	-2.10200E-001	9.56992E-004	5	..........a	-327.66
	198	39.8	-2.40091E-001	-7.99205E-008	0.00000E+000	-2.40200E-001	9.61692E-004	5	..........a	-327.66
	201	40.4	-2.70047E-001	-8.47829E-008	0.00000E+000	-2.70200E-001	9.64692E-004	5	..........a	-327.66
	204	41	-3.00090E-001	-8.95784E-008	0.00000E+000	-3.00200E-001	9.55392E-004	5	..........a	-327.66
	207	41.6	-3.30028E-001	-9.42614E-008	0.00000E+000	-3.30200E-001	9.70392E-004	5	..........a	-327.66
	210	42.2	-3.60086E-001	-9.90204E-008	0.00000E+000	-3.60200E-001	9.58192E-004	5	..........a	-327.66
	213	42.8	-3.90088E-001	-1.03333E-007	0.00000E+000	-3.90200E-001	9.64892E-004	5	..........a	-327.66
	216	43.4	-4.20050E-001	-1.07609E-007	0.00000E+000	-4.20200E-001	9.47392E-004	5	..........a	-327.66
	219	44	-4.49988E-001	-1.11944E-007	0.00000E+000	-4.50200E-001	9.56092E-004	5	..........a	-327.66
	222	44.6	-4.80021E-001	-1.16685E-007	0.00000E+000	-4.80200E-001	9.58492E-004	5	..........a	-327.66
	225	45.2	-5.10035E-001	-1.21448E-007	0.00000E+000	-5.10200E-001	9.61392E-004	5	..........a	-327.66
	228	45.8	-5.40034E-001	-1.26762E-007	0.00000E+000	-5.40200E-001	9.51592E-004	5	..........a	-327.66
	231	46.4	-5.69979E-001	-1.32433E-007	0.00000E+000	-5.70200E-001	9.71092E-004	5	..........a	-327.66
	234	47	-6.00044E-001	-1.39484E-007	0.00000E+000	-6.00200E-001	9.58892E-004	5	..........a	-327.66
CURVE2	TABLE
	Pt	T	Vf	Im	Vu	Sig	Ach	IERange	Over	Temp
	#	s	V vs. Ref.	A	V	V	V	#	bits	deg C
	235	47.2	-5.89831E-001	-1.19599E-007	0.00000E+000	-5.90000E-001	9.62592E-004	5	..........a	-327.66
	238	47.8	-5.59839E-001	-8.79702E-008	0.00000E+000	-5.60000E-001	9.49492E-004	5	..........a	-327.66
	241	48.4	-5.29848E-001	-6.84916E-008	0.00000E+000	-5.30000E-001	9.58192E-004	5	..........a	-327.66
	244	49	-4.99819E-001	-5.39529E-008	0.00000E+000	-5.00000E-001	9.52692E-004	5	..........a	-327.66
	247	49.6	-4.69839E-001	-4.18782E-008	0.00000E+000	-4.70000E-001	9.56892E-004	5	..........a	-327.66
	250	50.2	-4.39842E-001	-3.19812E-008	0.00000E+000	-4.40000E-001	9.62492E-004	5	..........a	-327.66
	253	50.8	-4.09881E-001	-2.33283E-008	0.00000E+000	-4.10000E-001	9.58792E-004	5	..........a	-327.66
	256	51.4	-3.79850E-001	-1.58733E-008	0.00000E+000	-3.80000E-001	9.40792E-004	5	..........a	-327.66
	259	52	-3.49872E-001	-9.05763E-009	0.00000E+000	-3.50000E-001	9.55792E-004	5	..........a	-327.66
	262	52.6	-3.19890E-001	-2.97592E-009	0.00000E+000	-3.20000E-001	9.46492E-004	5	..........a	-327.66
	265	53.2	-2.89988E-001	2.85589E-009	0.00000E+000	-2.90000E-001	9.51292E-004	5	..........a	-327.66
	268	53.8	-2.59844E-001	8.29470E-009	0.00000E+000	-2.60000E-001	9.43092E-004	5	..........a	-327.66
	271	54.4	-2.29969E-001	1.39540E-008	0.00000E+000	-2.30000E-001	9.51592E-004	5	..........a	-327.66
	274	55	-1.99980E-001	2.04320E-008	0.00000E+000	-2.00000E-001	9.64492E-004	5	..........a	-327.66
	277	55.6	-1.69924E-001	2.76610E-008	0.00000E+000	-1.70000E-001	9.61392E-004	5	..........a	-327.66
	280	56.2	-1.39935E-001	3.44972E-008	0.00000E+000	-1.40000E-001	9.48892E-004	5	..........a	-327.66
	283	56.8	-1.09987E-001	3.94797E-008	0.00000E+000	-1.10000E-001	9.57292E-004	5	..........a	-327.66
	286	57.4	-8.00049E-002	4.44997E-008	0.00000E+000	-8.00000E-002	9.54792E-004	5	..........a	-327.66
	289	58	-4.99499E-002	4.92937E-008	0.00000E+000	-5.00000E-002	9.53392E-004	5	..........a	-327.66
	292	58.6	-1.99714E-002	5.38244E-008	0.00000E+000	-2.00000E-002	9.39792E-004	5	..........a	-327.66
	295	59.2	1.00830E-002	5.80542E-008	0.00000E+000	1.00000E-002	9.54592E-004	5	..........a	-327.66
	298	59.8	3.99946E-002	6.23924E-008	0.00000E+000	4.00000E-002	9.57992E-004	5	..........a	-327.66
	301	60.4	7.00036E-002	6.84750E-008	0.00000E+000	7.00000E-002	9.67392E-004	5	..........a	-327.66
	304	61	1.00063E-001	7.35770E-008	0.00000E+000	1.00000E-001	9.43192E-004	5	..........a	-327.66
	307	61.6	1.30007E-001	7.92758E-008	0.00000E+000	1.30000E-001	9.50492E-004	5	..........a	-327.66
	310	62.2	1.59993E-001	9.57797E-008	0.00000E+000	1.60000E-001	9.51492E-004	5	..........a	-327.66
	313	62.8	1.90058E-001	1.00254E-007	0.00000E+000	1.90000E-001	9.52192E-004	5	..........a	-327.66
	316	63.4	2.19994E-001	1.00920E-007	0.00000E+000	2.20000E-001	9.39392E-004	5	..........a	-327.66
	319	64	2.49947E-001	1.04081E-007	0.00000E+000	2.50000E-001	9.63192E-004	5	..........a	-327.66
	322	64.6	2.79936E-001	1.14525E-007	0.00000E+000	2.80000E-001	9.57892E-004	5	..........a	-327.66
	325	65.2	3.09989E-001	1.31702E-007	0.00000E+000	3.10000E-001	9.69392E-004	5	..........a	-327.66
	328	65.8	3.39976E-001	1.31086E-007	0.00000E+000	3.40000E-001	9.44592E-004	5	..........a	-327.66
	331	66.4	3.69964E-001	1.47350E-007	0.00000E+000	3.70000E-001	9.50292E-004	5	..........a	-327.66
	334	67	3.99949E-001	1.61711E-007	0.00000E+000	4.00000E-001	9.59892E-004	5	..........a	-327.66
	337	67.6	4.29956E-001	1.65514E-007	0.00000E+000	4.30000E-001	9.69692E-004	5	..........a	-327.66
	340	68.2	4.59918E-001	1.70474E-007	0.00000E+000	4.60000E-001	9.57092E-004	5	..........a	-327.66
	343	68.8	4.89882E-001	1.74663E-007	0.00000E+000	4.90000E-001	9.57992E-004	5	..........a	-327.66
	346	69.4	5.19901E-001	1.79018E-007	0.00000E+000	5.20000E-001	9.55292E-004	5	..........a	-327.66
	349	70	5.49945E-001	1.87373E-007	0.00000E+000	5.50000E-001	9.47392E-004	5	..........a	-327.66
	352	70.6	5.79890E-001	2.07345E-007	0.00000E+000	5.80000E-001	9.42592E-004	5	..........a	-327.66
	355	71.2	6.09887E-001	2.11991E-007	0.00000E+000	6.10000E-001	9.60492E-004	5	..........a	-327.66
	358	71.8	6.39841E-001	2.23577E-007	0.00000E+000	6.40000E-001	9.65092E-004	5	..........a	-327.66
	361	72.4	6.69913E-001	2.38617E-007	0.00000E+000	6.70000E-001	9.52592E-004	5	..........a	-327.66
[...]
	960	192.2	5.40033E-001	3.16631E-008	0.00000E+000	5.40000E-001	9.38692E-004	5	..........a	-327.66
	963	192.8	5.09976E-001	2.30985E-008	0.00000E+000	5.10000E-001	9.71892E-004	5	..........a	-327.66
	966	193.4	4.79948E-001	1.54787E-008	0.00000E+000	4.80000E-001	9.81892E-004	5	..........a	-327.66
	969	194	4.49963E-001	8.22969E-009	0.00000E+000	4.50000E-001	9.40492E-004	5	..........a	-327.66
	972	194.6	4.20022E-001	1.09729E-009	0.00000E+000	4.20000E-001	9.61792E-004	5	..........a	-327.66
	975	195.2	3.90081E-001	-4.74175E-009	0.00000E+000	3.90000E-001	9.52292E-004	5	..........a	-327.66
	978	195.8	3.60051E-001	-9.64558E-009	0.00000E+000	3.60000E-001	9.43892E-004	5	..........a	-327.66
	981	196.4	3.30056E-001	-1.42846E-008	0.00000E+000	3.30000E-001	9.44492E-004	5	..........a	-327.66
	984	197	3.00091E-001	-1.85033E-008	0.00000E+000	3.00000E-001	9.43992E-004	5	..........a	-327.66
	987	197.6	2.70102E-001	-2.22741E-008	0.00000E+000	2.70000E-001	9.56392E-004	5	..........a	-327.66
	990	198.2	2.40081E-001	-2.52696E-008	0.00000E+000	2.40000E-001	9.64492E-004	5	..........a	-327.66
	993	198.8	2.10031E-001	-2.78755E-008	0.00000E+000	2.10000E-001	9.53892E-004	5	..........a	-327.66
	996	199.4	1.80131E-001	-2.98574E-008	0.00000E+000	1.80000E-001	9.48892E-004	5	..........a	-327.66
	999	200	1.50083E-001	-3.27615E-008	0.00000E+000	1.50000E-001	9.54092E-004	5	..........a	-327.66
	1002	200.6	1.20087E-001	-3.59572E-008	0.00000E+000	1.20000E-001	9.37092E-004	5	..........a	-327.66
	1005	201.2	9.01199E-002	-3.88055E-008	0.00000E+000	9.00000E-002	9.63192E-004	5	..........a	-327.66
	1008	201.8	6.01404E-002	-4.10699E-008	0.00000E+000	6.00000E-002	9.38592E-004	5	..........a	-327.66
	1011	202.4	3.01064E-002	-4.41843E-008	0.00000E+000	3.00000E-002	9.52392E-004	5	..........a	-327.66
	1014	203	8.18417E-005	-4.71620E-008	0.00000E+000	7.45058E-009	9.50792E-004	5	..........a	-327.66
	1017	203.6	-2.98806E-002	-5.01661E-008	0.00000E+000	-3.00000E-002	9.57392E-004	5	..........a	-327.66
	1020	204.2	-5.98549E-002	-5.35619E-008	0.00000E+000	-6.00000E-002	9.43892E-004	5	..........a	-327.66
	1023	204.8	-8.98736E-002	-5.70827E-008	0.00000E+000	-9.00000E-002	9.55792E-004	5	..........a	-327.66
	1026	205.4	-1.19886E-001	-6.10411E-008	0.00000E+000	-1.20000E-001	9.54292E-004	5	..........a	-327.66
	1029	206	-1.49896E-001	-6.54703E-008	0.00000E+000	-1.50000E-001	9.54792E-004	5	..........a	-327.66
	1032	206.6	-1.79850E-001	-7.02796E-008	0.00000E+000	-1.80000E-001	9.44792E-004	5	..........a	-327.66
	1035	207.2	-2.09855E-001	-7.54436E-008	0.00000E+000	-2.10000E-001	9.55992E-004	5	..........a	-327.66
	1038	207.8	-2.39844E-001	-8.08923E-008	0.00000E+000	-2.40000E-001	9.54992E-004	5	..........a	-327.66
	1041	208.4	-2.69838E-001	-8.63268E-008	0.00000E+000	-2.70000E-001	9.47792E-004	5	..........a	-327.66
	1044	209	-2.99820E-001	-9.18887E-008	0.00000E+000	-3.00000E-001	9.47192E-004	5	..........a	-327.66
	1047	209.6	-3.29844E-001	-9.73227E-008	0.00000E+000	-3.30000E-001	9.52092E-004	5	..........a	-327.66
	1050	210.2	-3.59829E-001	-1.02558E-007	0.00000E+000	-3.60000E-001	9.40992E-004	5	..........a	-327.66
	1053	210.8	-3.89852E-001	-1.07011E-007	0.00000E+000	-3.90000E-001	9.48592E-004	5	..........a	-327.66
	1056	211.4	-4.19776E-001	-1.11104E-007	0.00000E+000	-4.20000E-001	9.43892E-004	5	..........a	-327.66
	1059	212	-4.49826E-001	-1.15072E-007	0.00000E+000	-4.50000E-001	9.43792E-004	5	..........a	-327.66
	1062	212.6	-4.79814E-001	-1.19006E-007	0.00000E+000	-4.80000E-001	9.51092E-004	5	..........a	-327.66
	1065	213.2	-5.09820E-001	-1.23116E-007	0.00000E+000	-5.10000E-001	9.41092E-004	5	..........a	-327.66
	1068	213.8	-5.39759E-001	-1.27598E-007	0.00000E+000	-5.40000E-001	9.45892E-004	5	..........a	-327.66
	1071	214.4	-5.69820E-001	-1.32846E-007	0.00000E+000	-5.70000E-001	9.44092E-004	5	..........a	-327.66
	1074	215	-5.99771E-001	-1.38865E-007	0.00000E+000	-6.00000E-001	9.49092E-004	5	..........a	-327.66
CURVE5	TABLE
	Pt	T	Vf	Im	Vu	Sig	Ach	IERange	Over	Temp
	#	s	V vs. Ref.	A	V	V	V	#	bits	deg C
	1075	215.2	-5.89829E-001	-1.19341E-007	0.00000E+000	-5.90000E-001	9.52192E-004	5	..........a	-327.66
	1076	215.4	-5.79790E-001	-1.06457E-007	0.00000E+000	-5.80000E-001	9.37992E-004	5	..........a	-327.66
	1077	215.6	-5.69819E-001	-9.63906E-008	0.00000E+000	-5.70000E-001	9.34892E-004	5	..........a	-327.66
	1078	215.8	-5.59821E-001	-8.80325E-008	0.00000E+000	-5.60000E-001	9.61292E-004	5	..........a	-327.66
	1079	216	-5.49841E-001	-8.08155E-008	0.00000E+000	-5.50000E-001	9.40892E-004	5	..........a	-327.66
	1080	216.2	-5.39779E-001	-7.44711E-008	0.00000E+000	-5.40000E-001	9.52092E-004	5	..........a	-327.66
	1081	216.4	-5.29852E-001	-6.87747E-008	0.00000E+000	-5.30000E-001	9.50992E-004	5	..........a	-327.66
	1082	216.6	-5.19866E-001	-6.36266E-008	0.00000E+000	-5.20000E-001	9.55392E-004	5	..........a	-327.66
	1083	216.8	-5.09890E-001	-5.88359E-008	0.00000E+000	-5.10000E-001	9.46192E-004	5	..........a	-327.66
	1084	217	-4.99823E-001	-5.43670E-008	0.00000E+000	-5.00000E-001	9.53092E-004	5	..........a	-327.66
	1085	217.2	-4.89842E-001	-5.02681E-008	0.00000E+000	-4.90000E-001	9.55292E-004	5	..........a	-327.66
	1086	217.4	-4.79824E-001	-4.64021E-008	0.00000E+000	-4.80000E-001	9.50092E-004	5	..........a	-327.66
	1087	217.6	-4.69846E-001	-4.28288E-008	0.00000E+000	-4.70000E-001	9.57892E-004	5	..........a	-327.66
	1088	217.8	-4.59805E-001	-3.92981E-008	0.00000E+000	-4.60000E-001	9.42092E-004	5	..........a	-327.66
	1089	218	-4.49844E-001	-3.61018E-008	0.00000E+000	-4.50000E-001	9.54292E-004	5	..........a	-327.66
	1090	218.2	-4.39897E-001	-3.30329E-008	0.00000E+000	-4.40000E-001	9.51092E-004	5	..........a	-327.66
	1091	218.4	-4.29850E-001	-3.00555E-008	0.00000E+000	-4.30000E-001	9.54192E-004	5	..........a	-327.66
	1092	218.6	-4.19805E-001	-2.72662E-008	0.00000E+000	-4.20000E-001	9.50092E-004	5	..........a	-327.66
	1093	218.8	-4.09851E-001	-2.45938E-008	0.00000E+000	-4.10000E-001	9.55092E-004	5	..........a	-327.66
	1094	219	-3.99867E-001	-2.20254E-008	0.00000E+000	-4.00000E-001	9.51592E-004	5	..........a	-327.66
	1095	219.2	-3.89895E-001	-1.95295E-008	0.00000E+000	-3.90000E-001	9.44192E-004	5	..........a	-327.66
	1096	219.4	-3.79842E-001	-1.71197E-008	0.00000E+000	-3.80000E-001	9.38992E-004	5	..........a	-327.66
	1097	219.6	-3.69847E-001	-1.48238E-008	0.00000E+000	-3.70000E-001	9.45892E-004	5	..........a	-327.66
	1098	219.8	-3.59932E-001	-1.26367E-008	0.00000E+000	-3.60000E-001	9.55592E-004	5	..........a	-327.66
	1099	220	-3.49870E-001	-1.04847E-008	0.00000E+000	-3.50000E-001	9.57392E-004	5	..........a	-327.66
	1100	220.2	-3.39842E-001	-8.38355E-009	0.00000E+000	-3.40000E-001	9.45692E-004	5	..........a	-327.66
	1101	220.4	-3.29883E-001	-6.33644E-009	0.00000E+000	-3.30000E-001	9.54592E-004	5	..........a	-327.66
	1102	220.6	-3.19863E-001	-4.41008E-009	0.00000E+000	-3.20000E-001	9.50692E-004	5	..........a	-327.66
	1103	220.8	-3.09898E-001	-2.51454E-009	0.00000E+000	-3.10000E-001	9.45792E-004	5	..........a	-327.66
	1104	221	-2.99867E-001	-7.00800E-010	0.00000E+000	-3.00000E-001	9.51592E-004	5	..........a	-327.66
	1105	221.2	-2.89917E-001	1.18270E-009	0.00000E+000	-2.90000E-001	9.63792E-004	5	..........a	-327.66
	1106	221.4	-2.79953E-001	2.98268E-009	0.00000E+000	-2.80000E-001	9.62192E-004	5	..........a	-327.66
	1107	221.6	-2.69869E-001	4.75296E-009	0.00000E+000	-2.70000E-001	9.47292E-004	5	..........a	-327.66
	1108	221.8	-2.59841E-001	6.48977E-009	0.00000E+000	-2.60000E-001	9.58192E-004	5	..........a	-327.66
	1109	222	-2.49914E-001	8.15396E-009	0.00000E+000	-2.50000E-001	9.48292E-004	5	..........a	-327.66
	1110	222.2	-2.39910E-001	9.83573E-009	0.00000E+000	-2.40000E-001	9.56492E-004	5	..........a	-327.66
	1111	222.4	-2.29938E-001	1.14439E-008	0.00000E+000	-2.30000E-001	9.41792E-004	5	..........a	-327.66
	1112	222.6	-2.19892E-001	1.30293E-008	0.00000E+000	-2.20000E-001	9.35392E-004	5	..........a	-327.66
	1113	222.8	-2.09914E-001	1.45884E-008	0.00000E+000	-2.10000E-001	9.62492E-004	5	..........a	-327.66
	1114	223	-1.99951E-001	1.61181E-008	0.00000E+000	-2.00000E-001	9.55292E-004	5	..........a	-327.66
	1115	223.2	-1.90151E-001	1.76167E-008	0.00000E+000	-1.90000E-001	9.47292E-004	5	..........a	-327.66
	1116	223.4	-1.79928E-001	1.90836E-008	0.00000E+000	-1.80000E-001	9.43292E-004	5	..........a	-327.66
	1117	223.6	-1.69903E-001	2.04930E-008	0.00000E+000	-1.70000E-001	9.54292E-004	5	..........a	-327.66
	1118	223.8	-1.59965E-001	2.19197E-008	0.00000E+000	-1.60000E-001	9.54992E-004	5	..........a	-327.66
	1119	224	-1.50019E-001	2.33013E-008	0.00000E+000	-1.50000E-001	9.52492E-004	5	..........a	-327.66
	1120	224.2	-1.39974E-001	2.46430E-008	0.00000E+000	-1.40000E-001	9.47792E-004	5	..........a	-327.66