File: example_project/raw_outputs/20240509_O_GM0016_HL03_E04_CV50.DTA
EXPLAIN
TAG	CV
TITLE	LABEL	Cyclic Voltammetry	Test &Identifier
DATE	LABEL	5/9/2024	Date
TIME	LABEL	13:11:10	Time
NOTES	NOTES	1	&Notes...

PSTAT	PSTAT	REF600P-43058	Potentiostat
VINIT	POTEN	0.00000E+000	T	Initial &E (V)
VLIMIT1	POTEN	8.00000E-001	F	Scan Limit &1 (V)
VLIMIT2	POTEN	-6.00000E-001	F	Scan Limit &2 (V)
VFINAL	POTEN	0.00000E+000	T	Final &E (V)
SCANRATE	QUANT	4.99999E+001	&Scan Rate (mV/s)
STEPSIZE	QUANT	1.00000E+001	St&ep Size (mV)
CYCLES	IQUANT	4	C&ycles (#)
IMODE	SELECTOR	0	I/E Range &Mode
IRANGE	QUANT	1.00000E-005	&Max Current (mA)
AREA	QUANT	1.00000E+000	Electrode &Area (cm^2)
ELECTRODETYPE	SELECTOR	0	Electrode Type
STRIPPING	TOGGLE	F	Used for Stripping
POLARITY	TOGGLE	F	Signal Polarity
CONDIT	TWOPARAM	F	1.50000E+001	0.00000E+000	Conditionin&g	Time(s)	E(V)
DELAY	TWOPARAM	T	1.00000E+001	0.00000E+000	Init. De&lay	Time(s)	Stab.(mV/s)
EQDELAY	QUANT	1.00000E+001	Equil. &Time (s)
IRCOMP	SELECTOR	0	IRCom&p
PFCOR	QUANT	5.00000E+001	PF Corr. (ohm)
SAMPLINGMODE	SELECTOR	1	Sampling &Mode
OCVCURVE	TABLE	39
	Pt	T	Vf	Vm	Ach	Over	Temp
	#	s	V vs. Ref.	V	V	bits	deg C
	0	0.258333	-9.21808E-002	-9.21808E-002	2.51859E-004	..........a	-327.66
	1	0.516667	-9.21858E-002	-9.24426E-002	2.39059E-004	..........a	-327.66
	2	0.775	-9.22165E-002	-9.26895E-002	2.28659E-004	..........a	-327.66
	3	1.03333	-9.23036E-002	-9.29457E-002	2.42059E-004	..........a	-327.66
	4	1.29167	-9.24608E-002	-9.31889E-002	2.38659E-004	..........a	-327.66
	5	1.55	-9.26732E-002	-9.34347E-002	2.44126E-004	..........a	-327.66
	6	1.80833	-9.29139E-002	-9.36626E-002	2.29792E-004	..........a	-327.66
	7	2.06667	-9.31616E-002	-9.38985E-002	2.29059E-004	..........a	-327.66
	8	2.325	-9.34059E-002	-9.41288E-002	2.31526E-004	..........a	-327.66
	9	2.58333	-9.36445E-002	-9.43574E-002	2.49392E-004	..........a	-327.66
	10	2.84167	-9.38785E-002	-9.45817E-002	2.47859E-004	..........a	-327.66
	11	3.1	-9.41094E-002	-9.48117E-002	2.37392E-004	..........a	-327.66
	12	3.35833	-9.43380E-002	-9.50247E-002	2.33792E-004	..........a	-327.66
	13	3.61667	-9.45639E-002	-9.52287E-002	2.40459E-004	..........a	-327.66
	14	3.875	-9.47857E-002	-9.54381E-002	2.37526E-004	..........a	-327.66
	15	4.13333	-9.50018E-002	-9.56370E-002	2.41326E-004	..........a	-327.66
	16	4.39167	-9.52124E-002	-9.58462E-002	2.45059E-004	..........a	-327.66
	17	4.65	-9.54194E-002	-9.60510E-002	2.36859E-004	..........a	-327.66
	18	4.90833	-9.56249E-002	-9.62644E-002	2.39726E-004	..........a	-327.66
	19	5.16667	-9.58308E-002	-9.64733E-002	2.40992E-004	..........a	-327.66
	20	5.425	-9.60380E-002	-9.66702E-002	2.35992E-004	..........a	-327.66
	21	5.68333	-9.62455E-002	-9.68719E-002	2.29859E-004	..........a	-327.66
	22	5.94167	-9.64512E-002	-9.70669E-002	2.38592E-004	..........a	-327.66
	23	6.2	-9.66541E-002	-9.72706E-002	2.32326E-004	..........a	-327.66
	24	6.45833	-9.68546E-002	-9.74561E-002	2.43659E-004	..........a	-327.66
	25	6.71667	-9.70525E-002	-9.76316E-002	2.35392E-004	..........a	-327.66
	26	6.975	-9.72464E-002	-9.78128E-002	2.32126E-004	..........a	-327.66
	27	7.23333	-9.74350E-002	-9.80002E-002	2.35192E-004	..........a	-327.66
	28	7.49167	-9.76193E-002	-9.81732E-002	2.35126E-004	..........a	-327.66
	29	7.75	-9.78008E-002	-9.83413E-002	2.53392E-004	..........a	-327.66
	30	8.00833	-9.79800E-002	-9.85186E-002	2.20592E-004	..........a	-327.66
	31	8.26667	-9.81563E-002	-9.86831E-002	2.37192E-004	..........a	-327.66
	32	8.525	-9.83298E-002	-9.88502E-002	2.45326E-004	..........a	-327.66
	33	8.78333	-9.85008E-002	-9.90137E-002	2.32792E-004	..........a	-327.66
	34	9.04167	-9.86693E-002	-9.91764E-002	2.28859E-004	..........a	-327.66
	35	9.3	-9.88356E-002	-9.93369E-002	2.38192E-004	..........a	-327.66
	36	9.5583	-9.90000E-002	-9.94982E-002	2.29659E-004	..........a	-327.66
	37	9.8167	-9.91627E-002	-9.96568E-002	2.26259E-004	..........a	-327.66
	38	10.075	-9.93241E-002	-9.98083E-002	2.46659E-004	..........a	-327.66
EOC	QUANT	-0.0993241	Open Circuit (V)
PSTATMODEL	IQUANT	7	Pstat Model
PSTATSECTION	LABEL	REF600P-43058	Pstat Section
PSTATSERIALNO	LABEL	43058	Pstat Serial Number
CTRLMODE	IQUANT	1	Control Mode
ELECTROMETER	IQUANT	0	RE=0 or CS=1
IESTAB	IQUANT	2	I/E Stability
CASPEED	IQUANT	4	Control Amp Speed
CONVENTION	IQUANT	1	Current Convention
ICHRANGE	IQUANT	2	Ich Range
ICHRANGEMODE	TOGGLE	F	Ich Auto Range
ICHOFFSETENABLE	TOGGLE	F	Ich Offset Enable
ICHOFFSET	QUANT	0	Ich Offset (V)
ICHFILTER	IQUANT	2	Ich Filter
VCHRANGE	IQUANT	2	Vch Range
VCHRANGEMODE	TOGGLE	F	Vch Auto Range
VCHOFFSETENABLE	TOGGLE	F	Vch Offset Enable
VCHOFFSET	QUANT	0	Vch Offset (V)
VCHFILTER	IQUANT	2	Vch Filter
ACHRANGE	IQUANT	2	Ach Range
ACHOFFSETENABLE	TOGGLE	F	Ach Offset Enable
ACHOFFSET	QUANT	0	Ach Offset (V)
ACHFILTER	IQUANT	1	Ach Filter
IERANGELOWERLIMIT	IQUANT	1	I/E Range Lower Limit
IERANGEMODE	TOGGLE	T	I/E AutoRange
IERANGE	IQUANT	4	I/E Range
POSFEEDENABLE	TOGGLE	F	Positive Feedback IR Comp
POSFEEDRESISTANCE	QUANT	0	Positive Feedback Resistance (ohm)
ACHSELECT	IQUANT	4	Ach Select
SENSECABLEID	IQUANT	7	Sense Cable ID
PWRCABLEID	IQUANT	7	Power Cable ID
DCCALDATE	LABEL	3/22/2024	DC Calibration Date
ACCALDATE	LABEL	3/22/2024	AC Calibration Date
THERMOSELECT	IQUANT	1	Thermo Select
FRAMEWORKVERSION	LABEL	7.8.4	Framework Version
INSTRUMENTVERSION	LABEL	4.42	Instrument Version
CURVE1	TABLE
	Pt	T	Vf	Im	Vu	Sig	Ach	IERange	Over	Temp
	#	s	V vs. Ref.	A	V	V	V	#	bits	deg C
	0	0.2	-9.92782E-002	1.02492E-009	0.00000E+000	-9.93000E-002	1.01869E-003	5	..........a	-327.66
	3	0.8	-6.92085E-002	8.47902E-009	0.00000E+000	-6.93000E-002	1.01479E-003	5	..........a	-327.66
	6	1.4	-3.92463E-002	1.23764E-008	0.00000E+000	-3.93000E-002	1.00059E-003	5	..........a	-327.66
	9	2	-9.23896E-003	1.54539E-008	0.00000E+000	-9.29999E-003	1.02799E-003	5	..........a	-327.66
	12	2.6	2.07101E-002	1.84718E-008	0.00000E+000	2.07000E-002	1.00919E-003	5	..........a	-327.66
	15	3.2	5.07568E-002	2.17554E-008	0.00000E+000	5.07000E-002	1.00629E-003	5	..........a	-327.66
	18	3.8	8.07744E-002	2.57065E-008	0.00000E+000	8.07000E-002	1.02349E-003	5	..........a	-327.66
	21	4.4	1.10772E-001	3.10769E-008	0.00000E+000	1.10700E-001	1.01289E-003	5	..........a	-327.66
	24	5	1.40752E-001	3.84487E-008	0.00000E+000	1.40700E-001	9.98692E-004	5	..........a	-327.66
	27	5.6	1.70745E-001	1.06626E-007	0.00000E+000	1.70700E-001	9.97792E-004	5	..........a	-327.66
	30	6.2	2.00755E-001	5.41330E-008	0.00000E+000	2.00700E-001	1.00389E-003	5	..........a	-327.66
	33	6.8	2.30675E-001	6.02365E-008	0.00000E+000	2.30700E-001	1.00439E-003	5	..........a	-327.66
	36	7.4	2.60691E-001	6.77485E-008	0.00000E+000	2.60700E-001	1.02789E-003	5	..........a	-327.66
	39	8	2.90760E-001	7.49640E-008	0.00000E+000	2.90700E-001	1.02619E-003	5	..........a	-327.66
	42	8.6	3.20730E-001	8.17296E-008	0.00000E+000	3.20700E-001	1.01099E-003	5	..........a	-327.66
	45	9.2	3.50659E-001	8.94245E-008	0.00000E+000	3.50700E-001	1.01729E-003	5	..........a	-327.66
	48	9.8	3.80676E-001	9.83045E-008	0.00000E+000	3.80700E-001	1.01029E-003	5	..........a	-327.66
	51	10.4	4.10754E-001	1.08328E-007	0.00000E+000	4.10700E-001	1.01459E-003	5	..........a	-327.66
	54	11	4.40659E-001	1.18477E-007	0.00000E+000	4.40700E-001	9.98892E-004	5	..........a	-327.66
	57	11.6	4.70640E-001	1.28568E-007	0.00000E+000	4.70700E-001	1.01489E-003	5	..........a	-327.66
	60	12.2	5.00627E-001	1.39234E-007	0.00000E+000	5.00700E-001	1.00229E-003	5	..........a	-327.66
	63	12.8	5.30733E-001	1.50991E-007	0.00000E+000	5.30700E-001	1.02049E-003	5	..........a	-327.66
	66	13.4	5.60640E-001	1.64106E-007	0.00000E+000	5.60700E-001	9.98792E-004	5	..........a	-327.66
	69	14	5.90584E-001	1.77980E-007	0.00000E+000	5.90700E-001	1.01309E-003	5	..........a	-327.66
	72	14.6	6.20559E-001	1.92250E-007	0.00000E+000	6.20700E-001	1.00679E-003	5	..........a	-327.66
	75	15.2	6.50629E-001	2.06917E-007	0.00000E+000	6.50700E-001	9.82392E-004	5	..........a	-327.66
	78	15.8	6.80475E-001	2.22695E-007	0.00000E+000	6.80700E-001	1.00119E-003	5	..........a	-327.66
	81	16.4	7.10541E-001	2.40186E-007	0.00000E+000	7.10700E-001	1.00189E-003	5	..........a	-327.66
	84	17	7.40513E-001	2.59906E-007	0.00000E+000	7.40700E-001	1.00739E-003	5	..........a	-327.66
	87	17.6	7.70606E-001	2.82857E-007	0.00000E+000	7.70700E-001	1.01019E-003	5	..........a	-327.66
	90	18.2	8.00520E-001	3.06068E-007	0.00000E+000	8.00700E-001	1.00089E-003	5	..........a	-327.66
	93	18.8	7.70663E-001	1.97840E-007	0.00000E+000	7.70700E-001	9.98792E-004	5	..........a	-327.66
	96	19.4	7.40597E-001	1.45293E-007	0.00000E+000	7.40700E-001	1.01799E-003	5	..........a	-327.66
	99	20	7.10585E-001	1.11329E-007	0.00000E+000	7.10700E-001	1.02269E-003	5	..........a	-327.66
	102	20.6	6.80457E-001	8.69676E-008	0.00000E+000	6.80700E-001	9.92092E-004	5	..........a	-327.66
	105	21.2	6.50698E-001	6.82946E-008	0.00000E+000	6.50700E-001	1.00829E-003	5	..........a	-327.66
	108	21.8	6.20633E-001	5.34784E-008	0.00000E+000	6.20700E-001	1.00749E-003	5	..........a	-327.66
	111	22.4	5.90648E-001	4.13608E-008	0.00000E+000	5.90700E-001	1.02419E-003	5	..........a	-327.66
	114	23	5.60708E-001	3.11042E-008	0.00000E+000	5.60700E-001	9.97492E-004	5	..........a	-327.66
	117	23.6	5.30734E-001	2.22649E-008	0.00000E+000	5.30700E-001	1.00569E-003	5	..........a	-327.66
	120	24.2	5.00700E-001	1.44512E-008	0.00000E+000	5.00700E-001	9.97892E-004	5	..........a	-327.66
	123	24.8	4.70672E-001	7.40621E-009	0.00000E+000	4.70700E-001	1.00499E-003	5	..........a	-327.66
	126	25.4	4.40698E-001	8.44958E-010	0.00000E+000	4.40700E-001	1.00029E-003	5	..........a	-327.66
	129	26	4.10789E-001	-5.55989E-009	0.00000E+000	4.10700E-001	1.01049E-003	5	..........a	-327.66
	132	26.6	3.80735E-001	-1.20487E-008	0.00000E+000	3.80700E-001	1.01339E-003	5	..........a	-327.66
	135	27.2	3.50734E-001	-1.88538E-008	0.00000E+000	3.50700E-001	1.00269E-003	5	..........a	-327.66
	138	27.8	3.20818E-001	-2.60832E-008	0.00000E+000	3.20700E-001	1.00379E-003	5	..........a	-327.66
	141	28.4	2.90802E-001	-3.37925E-008	0.00000E+000	2.90700E-001	1.00799E-003	5	..........a	-327.66
	144	29	2.60737E-001	-4.19480E-008	0.00000E+000	2.60700E-001	9.86392E-004	5	..........a	-327.66
	147	29.6	2.30745E-001	-4.97124E-008	0.00000E+000	2.30700E-001	1.01069E-003	5	..........a	-327.66
	150	30.2	2.00835E-001	-5.57885E-008	0.00000E+000	2.00700E-001	9.95792E-004	5	..........a	-327.66
	153	30.8	1.70771E-001	-5.77667E-008	0.00000E+000	1.70700E-001	1.01769E-003	5	..........a	-327.66
	156	31.4	1.40824E-001	-5.47999E-008	0.00000E+000	1.40700E-001	9.85992E-004	5	..........a	-327.66
	159	32	1.10818E-001	-5.02184E-008	0.00000E+000	1.10700E-001	1.02659E-003	5	..........a	-327.66
	162	32.6	8.08067E-002	-4.67158E-008	0.00000E+000	8.07000E-002	1.00479E-003	5	..........a	-327.66
	165	33.2	5.08013E-002	-4.41073E-008	0.00000E+000	5.07000E-002	1.02859E-003	5	..........a	-327.66
	168	33.8	2.07476E-002	-3.96341E-008	0.00000E+000	2.07000E-002	1.01239E-003	5	..........a	-327.66
	171	34.4	-9.18021E-003	-3.96479E-008	0.00000E+000	-9.29999E-003	1.01069E-003	5	..........a	-327.66
	174	35	-3.92087E-002	-3.90346E-008	0.00000E+000	-3.93000E-002	1.02209E-003	5	..........a	-327.66
	177	35.6	-6.91587E-002	-3.96628E-008	0.00000E+000	-6.93000E-002	1.01519E-003	5	..........a	-327.66
	180	36.2	-9.92318E-002	-4.08686E-008	0.00000E+000	-9.93000E-002	9.99092E-004	5	..........a	-327.66
	183	36.8	-1.29268E-001	-4.28520E-008	0.00000E+000	-1.29300E-001	1.00869E-003	5	..........a	-327.66
	186	37.4	-1.59203E-001	-4.52913E-008	0.00000E+000	-1.59300E-001	9.90092E-004	5	..........a	-327.66
	189	38	-1.89148E-001	-4.76330E-008	0.00000E+000	-1.89300E-001	1.00069E-003	5	..........a	-327.66
	192	38.6	-2.19149E-001	-5.00944E-008	0.00000E+000	-2.19300E-001	9.93792E-004	5	..........a	-327.66
	195	39.2	-2.49172E-001	-5.20426E-008	0.00000E+000	-2.49300E-001	1.00899E-003	5	..........a	-327.66
	198	39.8	-2.79145E-001	-5.41326E-008	0.00000E+000	-2.79300E-001	1.00849E-003	5	..........a	-327.66
	201	40.4	-3.09156E-001	-5.66829E-008	0.00000E+000	-3.09300E-001	1.01299E-003	5	..........a	-327.66
	204	41	-3.39219E-001	-5.95594E-008	0.00000E+000	-3.39300E-001	1.01469E-003	5	..........a	-327.66
	207	41.6	-3.69146E-001	-6.20108E-008	0.00000E+000	-3.69300E-001	1.00399E-003	5	..........a	-327.66
	210	42.2	-3.99152E-001	-6.41316E-008	0.00000E+000	-3.99300E-001	1.00059E-003	5	..........a	-327.66
	213	42.8	-4.29104E-001	-6.71473E-008	0.00000E+000	-4.29300E-001	1.00669E-003	5	..........a	-327.66
	216	43.4	-4.59139E-001	-6.98347E-008	0.00000E+000	-4.59300E-001	1.00369E-003	5	..........a	-327.66
	219	44	-4.89143E-001	-7.29009E-008	0.00000E+000	-4.89300E-001	1.00479E-003	5	..........a	-327.66
	222	44.6	-5.19089E-001	-7.59606E-008	0.00000E+000	-5.19300E-001	9.82092E-004	5	..........a	-327.66
	225	45.2	-5.49101E-001	-7.93596E-008	0.00000E+000	-5.49300E-001	1.00529E-003	5	..........a	-327.66
	228	45.8	-5.79129E-001	-8.37448E-008	0.00000E+000	-5.79300E-001	1.00409E-003	5	..........a	-327.66
	230	46.2	-5.99106E-001	-8.73823E-008	0.00000E+000	-5.99300E-001	9.93192E-004	5	..........a	-327.66
CURVE2	TABLE
	Pt	T	Vf	Im	Vu	Sig	Ach	IERange	Over	Temp
	#	s	V vs. Ref.	A	V	V	V	#	bits	deg C
	231	46.4	-5.89880E-001	-7.41042E-008	0.00000E+000	-5.90000E-001	1.00969E-003	5	..........a	-327.66
	234	47	-5.59855E-001	-5.11007E-008	0.00000E+000	-5.60000E-001	1.00669E-003	5	..........a	-327.66
	237	47.6	-5.29863E-001	-3.78023E-008	0.00000E+000	-5.30000E-001	9.86392E-004	5	..........a	-327.66
	240	48.2	-4.99831E-001	-2.81675E-008	0.00000E+000	-5.00000E-001	1.00559E-003	5	..........a	-327.66
	243	48.8	-4.69862E-001	-2.07372E-008	0.00000E+000	-4.70000E-001	1.01349E-003	5	..........a	-327.66
	246	49.4	-4.39829E-001	-1.44531E-008	0.00000E+000	-4.40000E-001	1.01349E-003	5	..........a	-327.66
	249	50	-4.09886E-001	-9.31074E-009	0.00000E+000	-4.10000E-001	1.00299E-003	5	..........a	-327.66
	252	50.6	-3.79844E-001	-4.90374E-009	0.00000E+000	-3.80000E-001	9.96592E-004	5	..........a	-327.66
	255	51.2	-3.49905E-001	-1.07810E-009	0.00000E+000	-3.50000E-001	1.02009E-003	5	..........a	-327.66
	258	51.8	-3.19903E-001	2.30059E-009	0.00000E+000	-3.20000E-001	9.93692E-004	5	..........a	-327.66
	261	52.4	-2.89942E-001	5.30808E-009	0.00000E+000	-2.90000E-001	1.02369E-003	5	..........a	-327.66
	264	53	-2.59817E-001	8.17302E-009	0.00000E+000	-2.60000E-001	9.99892E-004	5	..........a	-327.66
	267	53.6	-2.29944E-001	1.08375E-008	0.00000E+000	-2.30000E-001	1.00909E-003	5	..........a	-327.66
	270	54.2	-2.00006E-001	1.34207E-008	0.00000E+000	-2.00000E-001	1.01259E-003	5	..........a	-327.66
	273	54.8	-1.69903E-001	1.59829E-008	0.00000E+000	-1.70000E-001	1.00929E-003	5	..........a	-327.66
	276	55.4	-1.39893E-001	1.85764E-008	0.00000E+000	-1.40000E-001	1.00399E-003	5	..........a	-327.66
	279	56	-1.09961E-001	2.11853E-008	0.00000E+000	-1.10000E-001	1.00929E-003	5	..........a	-327.66
	282	56.6	-7.99964E-002	2.39384E-008	0.00000E+000	-8.00000E-002	1.01199E-003	5	..........a	-327.66
	285	57.2	-4.99159E-002	2.67504E-008	0.00000E+000	-5.00000E-002	1.00009E-003	5	..........a	-327.66
	288	57.8	-1.99304E-002	2.97763E-008	0.00000E+000	-2.00000E-002	9.94292E-004	5	..........a	-327.66
	291	58.4	1.00571E-002	3.30281E-008	0.00000E+000	1.00000E-002	1.01129E-003	5	..........a	-327.66
	294	59	3.99812E-002	3.62569E-008	0.00000E+000	4.00000E-002	1.03229E-003	5	..........a	-327.66
	297	59.6	6.99874E-002	3.97505E-008	0.00000E+000	7.00000E-002	1.03319E-003	5	..........a	-327.66
	300	60.2	1.00062E-001	4.39666E-008	0.00000E+000	1.00000E-001	1.00479E-003	5	..........a	-327.66
	303	60.8	1.30017E-001	5.32723E-008	0.00000E+000	1.30000E-001	1.01859E-003	5	..........a	-327.66
	306	61.4	1.60002E-001	6.32417E-008	0.00000E+000	1.60000E-001	1.01119E-003	5	..........a	-327.66
	309	62	1.90077E-001	5.98751E-008	0.00000E+000	1.90000E-001	9.97292E-004	5	..........a	-327.66
	312	62.6	2.19848E-001	6.22561E-008	0.00000E+000	2.20000E-001	1.01399E-003	5	..........a	-327.66
	315	63.2	2.49945E-001	6.47393E-008	0.00000E+000	2.50000E-001	9.99892E-004	5	..........a	-327.66
	318	63.8	2.79962E-001	6.75697E-008	0.00000E+000	2.80000E-001	1.02849E-003	5	..........a	-327.66
	321	64.4	3.10018E-001	7.11694E-008	0.00000E+000	3.10000E-001	9.91192E-004	5	..........a	-327.66
	324	65	3.40036E-001	7.54805E-008	0.00000E+000	3.40000E-001	9.90292E-004	5	..........a	-327.66
	327	65.6	3.69990E-001	8.02710E-008	0.00000E+000	3.70000E-001	1.01009E-003	5	..........a	-327.66
	330	66.2	3.99931E-001	8.54861E-008	0.00000E+000	4.00000E-001	9.91192E-004	5	..........a	-327.66
	333	66.8	4.29961E-001	9.09370E-008	0.00000E+000	4.30000E-001	1.00319E-003	5	..........a	-327.66
	336	67.4	4.59965E-001	9.70816E-008	0.00000E+000	4.60000E-001	9.92192E-004	5	..........a	-327.66
	339	68	4.89892E-001	1.04542E-007	0.00000E+000	4.90000E-001	1.00059E-003	5	..........a	-327.66
	342	68.6	5.19942E-001	1.13875E-007	0.00000E+000	5.20000E-001	1.01719E-003	5	..........a	-327.66
	345	69.2	5.49991E-001	1.25206E-007	0.00000E+000	5.50000E-001	1.01679E-003	5	..........a	-327.66
	348	69.8	5.79942E-001	1.37685E-007	0.00000E+000	5.80000E-001	1.00699E-003	5	..........a	-327.66
	351	70.4	6.09929E-001	1.50072E-007	0.00000E+000	6.10000E-001	1.01189E-003	5	..........a	-327.66
	354	71	6.39854E-001	1.63982E-007	0.00000E+000	6.40000E-001	1.00209E-003	5	..........a	-327.66
	357	71.6	6.69941E-001	1.79309E-007	0.00000E+000	6.70000E-001	9.98192E-004	5	..........a	-327.66
	360	72.2	6.99873E-001	1.96403E-007	0.00000E+000	7.00000E-001	9.82092E-004	5	..........a	-327.66
[...]
	968	193.8	4.20063E-001	-1.40141E-008	0.00000E+000	4.20000E-001	1.01699E-003	5	..........a	-327.66
	971	194.4	3.90089E-001	-1.99990E-008	0.00000E+000	3.90000E-001	1.00779E-003	5	..........a	-327.66
	974	195	3.60053E-001	-2.63618E-008	0.00000E+000	3.60000E-001	1.02879E-003	5	..........a	-327.66
	977	195.6	3.30063E-001	-3.32455E-008	0.00000E+000	3.30000E-001	1.00359E-003	5	..........a	-327.66
	980	196.2	3.00121E-001	-4.09533E-008	0.00000E+000	3.00000E-001	9.81692E-004	5	..........a	-327.66
	983	196.8	2.70090E-001	-4.91262E-008	0.00000E+000	2.70000E-001	1.00869E-003	5	..........a	-327.66
	986	197.4	2.40093E-001	-5.68833E-008	0.00000E+000	2.40000E-001	1.00539E-003	5	..........a	-327.66
	989	198	2.10058E-001	-6.27850E-008	0.00000E+000	2.10000E-001	1.02339E-003	5	..........a	-327.66
	992	198.6	1.80165E-001	-6.49919E-008	0.00000E+000	1.80000E-001	9.93792E-004	5	..........a	-327.66
	995	199.2	1.50097E-001	-6.29958E-008	0.00000E+000	1.50000E-001	1.03219E-003	5	..........a	-327.66
	998	199.8	1.20084E-001	-5.71744E-008	0.00000E+000	1.20000E-001	9.95492E-004	5	..........a	-327.66
	1001	200.4	9.01206E-002	-5.07207E-008	0.00000E+000	9.00000E-002	9.89492E-004	5	..........a	-327.66
	1004	201	6.01427E-002	-4.61159E-008	0.00000E+000	6.00000E-002	9.96692E-004	5	..........a	-327.66
	1007	201.6	3.00900E-002	-4.33835E-008	0.00000E+000	3.00000E-002	1.01639E-003	5	..........a	-327.66
	1010	202.2	5.17417E-005	-4.23487E-008	0.00000E+000	7.45058E-009	1.02969E-003	5	..........a	-327.66
	1013	202.8	-2.99110E-002	-4.14632E-008	0.00000E+000	-3.00000E-002	1.01169E-003	5	..........a	-327.66
	1016	203.4	-5.98423E-002	-4.10563E-008	0.00000E+000	-6.00000E-002	1.00019E-003	5	..........a	-327.66
	1019	204	-8.98794E-002	-4.20761E-008	0.00000E+000	-9.00000E-002	1.01279E-003	5	..........a	-327.66
	1022	204.6	-1.19883E-001	-4.38179E-008	0.00000E+000	-1.20000E-001	1.01559E-003	5	..........a	-327.66
	1025	205.2	-1.49897E-001	-4.62816E-008	0.00000E+000	-1.50000E-001	1.00039E-003	5	..........a	-327.66
	1028	205.8	-1.79854E-001	-4.86099E-008	0.00000E+000	-1.80000E-001	1.00449E-003	5	..........a	-327.66
	1031	206.4	-2.09868E-001	-5.06234E-008	0.00000E+000	-2.10000E-001	1.00709E-003	5	..........a	-327.66
	1034	207	-2.39931E-001	-5.33493E-008	0.00000E+000	-2.40000E-001	9.85992E-004	5	..........a	-327.66
	1037	207.6	-2.69842E-001	-5.50939E-008	0.00000E+000	-2.70000E-001	9.96192E-004	5	..........a	-327.66
	1040	208.2	-2.99819E-001	-5.78063E-008	0.00000E+000	-3.00000E-001	9.97792E-004	5	..........a	-327.66
	1043	208.8	-3.29863E-001	-6.10208E-008	0.00000E+000	-3.30000E-001	1.01389E-003	5	..........a	-327.66
	1046	209.4	-3.59893E-001	-6.35081E-008	0.00000E+000	-3.60000E-001	1.02939E-003	5	..........a	-327.66
	1049	210	-3.89876E-001	-6.58853E-008	0.00000E+000	-3.90000E-001	1.00959E-003	5	..........a	-327.66
	1052	210.6	-4.19738E-001	-6.82482E-008	0.00000E+000	-4.20000E-001	1.01709E-003	5	..........a	-327.66
	1055	211.2	-4.49829E-001	-7.13691E-008	0.00000E+000	-4.50000E-001	1.00029E-003	5	..........a	-327.66
	1058	211.8	-4.79847E-001	-7.44030E-008	0.00000E+000	-4.80000E-001	9.96392E-004	5	..........a	-327.66
	1061	212.4	-5.09839E-001	-7.74717E-008	0.00000E+000	-5.10000E-001	1.00079E-003	5	..........a	-327.66
	1064	213	-5.39754E-001	-8.04274E-008	0.00000E+000	-5.40000E-001	1.00309E-003	5	..........a	-327.66
	1067	213.6	-5.69845E-001	-8.41684E-008	0.00000E+000	-5.70000E-001	1.01999E-003	5	..........a	-327.66
	1070	214.2	-5.99727E-001	-8.76377E-008	0.00000E+000	-6.00000E-001	1.01529E-003	5	..........a	-327.66
CURVE5	TABLE
	Pt	T	Vf	Im	Vu	Sig	Ach	IERange	Over	Temp
	#	s	V vs. Ref.	A	V	V	V	#	bits	deg C
	1071	214.4	-5.89853E-001	-7.33944E-008	0.00000E+000	-5.90000E-001	1.00219E-003	5	..........a	-327.66
	1072	214.6	-5.79793E-001	-6.41969E-008	0.00000E+000	-5.80000E-001	1.00429E-003	5	..........a	-327.66
	1073	214.8	-5.69863E-001	-5.69942E-008	0.00000E+000	-5.70000E-001	1.01169E-003	5	..........a	-327.66
	1074	215	-5.59837E-001	-5.11125E-008	0.00000E+000	-5.60000E-001	1.00949E-003	5	..........a	-327.66
	1075	215.2	-5.49856E-001	-4.60922E-008	0.00000E+000	-5.50000E-001	1.00549E-003	5	..........a	-327.66
	1076	215.4	-5.39805E-001	-4.17098E-008	0.00000E+000	-5.40000E-001	9.86392E-004	5	..........a	-327.66
	1077	215.6	-5.29847E-001	-3.78076E-008	0.00000E+000	-5.30000E-001	9.97092E-004	5	..........a	-327.66
	1078	215.8	-5.19852E-001	-3.42914E-008	0.00000E+000	-5.20000E-001	1.02169E-003	5	..........a	-327.66
	1079	216	-5.09845E-001	-3.11290E-008	0.00000E+000	-5.10000E-001	1.00919E-003	5	..........a	-327.66
	1080	216.2	-4.99818E-001	-2.82822E-008	0.00000E+000	-5.00000E-001	9.96692E-004	5	..........a	-327.66
	1081	216.4	-4.89846E-001	-2.56108E-008	0.00000E+000	-4.90000E-001	1.02309E-003	5	..........a	-327.66
	1082	216.6	-4.79894E-001	-2.31699E-008	0.00000E+000	-4.80000E-001	1.02819E-003	5	..........a	-327.66
	1083	216.8	-4.69845E-001	-2.08756E-008	0.00000E+000	-4.70000E-001	9.97992E-004	5	..........a	-327.66
	1084	217	-4.59810E-001	-1.87035E-008	0.00000E+000	-4.60000E-001	9.86492E-004	5	..........a	-327.66
	1085	217.2	-4.49837E-001	-1.66949E-008	0.00000E+000	-4.50000E-001	9.80692E-004	5	..........a	-327.66
	1086	217.4	-4.39830E-001	-1.48314E-008	0.00000E+000	-4.40000E-001	1.00189E-003	5	..........a	-327.66
	1087	217.6	-4.29865E-001	-1.30608E-008	0.00000E+000	-4.30000E-001	9.94092E-004	5	..........a	-327.66
	1088	217.8	-4.19798E-001	-1.13268E-008	0.00000E+000	-4.20000E-001	9.99592E-004	5	..........a	-327.66
	1089	218	-4.09847E-001	-9.72519E-009	0.00000E+000	-4.10000E-001	9.96992E-004	5	..........a	-327.66
	1090	218.2	-3.99834E-001	-8.15714E-009	0.00000E+000	-4.00000E-001	1.00309E-003	5	..........a	-327.66
	1091	218.4	-3.89914E-001	-6.74071E-009	0.00000E+000	-3.90000E-001	1.02529E-003	5	..........a	-327.66
	1092	218.6	-3.79834E-001	-5.34231E-009	0.00000E+000	-3.80000E-001	9.89792E-004	5	..........a	-327.66
	1093	218.8	-3.69835E-001	-3.97633E-009	0.00000E+000	-3.70000E-001	1.01049E-003	5	..........a	-327.66
	1094	219	-3.59871E-001	-2.74134E-009	0.00000E+000	-3.60000E-001	1.01579E-003	5	..........a	-327.66
	1095	219.2	-3.49906E-001	-1.49714E-009	0.00000E+000	-3.50000E-001	9.97792E-004	5	..........a	-327.66
	1096	219.4	-3.39792E-001	-3.24656E-010	0.00000E+000	-3.40000E-001	9.82192E-004	5	..........a	-327.66
	1097	219.6	-3.29923E-001	8.49918E-010	0.00000E+000	-3.30000E-001	1.01739E-003	5	..........a	-327.66
	1098	219.8	-3.19861E-001	1.99833E-009	0.00000E+000	-3.20000E-001	1.01489E-003	5	..........a	-327.66
	1099	220	-3.09944E-001	3.07382E-009	0.00000E+000	-3.10000E-001	1.01309E-003	5	..........a	-327.66
	1100	220.2	-2.99860E-001	4.10034E-009	0.00000E+000	-3.00000E-001	1.00719E-003	5	..........a	-327.66
	1101	220.4	-2.89925E-001	5.16153E-009	0.00000E+000	-2.90000E-001	1.01059E-003	5	..........a	-327.66
	1102	220.6	-2.79928E-001	6.16464E-009	0.00000E+000	-2.80000E-001	1.00819E-003	5	..........a	-327.66
	1103	220.8	-2.69862E-001	7.15733E-009	0.00000E+000	-2.70000E-001	9.97092E-004	5	..........a	-327.66
	1104	221	-2.59824E-001	8.06778E-009	0.00000E+000	-2.60000E-001	1.00919E-003	5	..........a	-327.66
	1105	221.2	-2.49899E-001	9.05042E-009	0.00000E+000	-2.50000E-001	9.99692E-004	5	..........a	-327.66
	1106	221.4	-2.39920E-001	9.98630E-009	0.00000E+000	-2.40000E-001	1.00789E-003	5	..........a	-327.66
	1107	221.6	-2.29921E-001	1.09058E-008	0.00000E+000	-2.30000E-001	1.01769E-003	5	..........a	-327.66
	1108	221.8	-2.19866E-001	1.18397E-008	0.00000E+000	-2.20000E-001	9.89492E-004	5	..........a	-327.66
	1109	222	-2.09933E-001	1.27182E-008	0.00000E+000	-2.10000E-001	9.90292E-004	5	..........a	-327.66
	1110	222.2	-1.99966E-001	1.36569E-008	0.00000E+000	-2.00000E-001	1.02189E-003	5	..........a	-327.66
	1111	222.4	-1.89902E-001	1.45465E-008	0.00000E+000	-1.90000E-001	1.01659E-003	5	..........a	-327.66
	1112	222.6	-1.79910E-001	1.54474E-008	0.00000E+000	-1.80000E-001	1.01269E-003	5	..........a	-327.66
	1113	222.8	-1.69892E-001	1.63510E-008	0.00000E+000	-1.70000E-001	1.00629E-003	5	..........a	-327.66
	1114	223	-1.59979E-001	1.72621E-008	0.00000E+000	-1.60000E-001	1.02289E-003	5	..........a	-327.66
	1115	223.2	-1.49986E-001	1.81307E-008	0.00000E+000	-1.50000E-001	1.03389E-003	5	..........a	-327.66
	1116	223.4	-1.39907E-001	1.90315E-008	0.00000E+000	-1.40000E-001	1.01119E-003	5	..........a	-327.66
	1117	223.6	-1.29925E-001	1.99121E-008	0.00000E+000	-1.30000E-001	1.01309E-003	5	..........a	-327.66
	1118	223.8	-1.19940E-001	2.07982E-008	0.00000E+000	-1.20000E-001	1.00999E-003	5	..........a	-327.66
	1119	224	-1.09972E-001	2.17354E-008	0.00000E+000	-1.10000E-001	1.00939E-003	5	..........a	-327.66
	1120	224.2	-9.98863E-002	2.26688E-008	0.00000E+000	-1.00000E-001	9.97692E-004	5	..........a	-327.66