File: example_project/raw_outputs/20240424_ZE_GM0016_HL03_E08_CV50.DTA
EXPLAIN
TAG	CV
TITLE	LABEL	Cyclic Voltammetry	Test &Identifier
DATE	LABEL	4/24/2024	Date
TIME	LABEL	18:29:05	Time
NOTES	NOTES	1	&Notes...

PSTAT	PSTAT	REF600P-43058	Potentiostat
VINIT	POTEN	0.00000E+000	T	Initial &E (V)
VLIMIT1	POTEN	-6.00000E-001	F	Scan Limit &1 (V)
VLIMIT2	POTEN	8.00000E-001	F	Scan Limit &2 (V)
VFINAL	POTEN	0.00000E+000	T	Final &E (V)
SCANRATE	QUANT	4.99999E+001	&Scan Rate (mV/s)
STEPSIZE	QUANT	1.00000E+001	St&ep Size (mV)
CYCLES	IQUANT	4	C&ycles (#)
IMODE	SELECTOR	0	I/E Range &Mode
IRANGE	QUANT	1.00000E-005	&Max Current (mA)
AREA	QUANT	1.00000E+000	Electrode &Area (cm^2)
ELECTRODETYPE	SELECTOR	0	Electrode Type
STRIPPING	TOGGLE	F	Used for Stripping
POLARITY	TOGGLE	F	Signal Polarity
CONDIT	TWOPARAM	F	1.50000E+001	0.00000E+000	Conditionin&g	Time(s)	E(V)
DELAY	TWOPARAM	T	1.00000E+001	0.00000E+000	Init. De&lay	Time(s)	Stab.(mV/s)
EQDELAY	QUANT	1.00000E+001	Equil. &Time (s)
IRCOMP	SELECTOR	0	IRCom&p
PFCOR	QUANT	5.00000E+001	PF Corr. (ohm)
SAMPLINGMODE	SELECTOR	1	Sampling &Mode
OCVCURVE	TABLE	39
	Pt	T	Vf	Vm	Ach	Over	Temp
	#	s	V vs. Ref.	V	V	bits	deg C
	0	0.258333	-8.93286E-002	-8.93286E-002	2.05459E-004	..........a	-327.66
	1	0.516667	-8.93348E-002	-8.96498E-002	2.07326E-004	..........a	-327.66
	2	0.775	-8.93726E-002	-8.99645E-002	2.06926E-004	..........a	-327.66
	3	1.03333	-8.94806E-002	-9.02772E-002	2.00259E-004	..........a	-327.66
	4	1.29167	-8.96761E-002	-9.05805E-002	2.11126E-004	..........a	-327.66
	5	1.55	-8.99403E-002	-9.08907E-002	2.14326E-004	..........a	-327.66
	6	1.80833	-9.02397E-002	-9.11738E-002	2.04392E-004	..........a	-327.66
	7	2.06667	-9.05482E-002	-9.14602E-002	2.05326E-004	..........a	-327.66
	8	2.325	-9.08522E-002	-9.17436E-002	1.97926E-004	..........a	-327.66
	9	2.58333	-9.11478E-002	-9.20193E-002	2.07592E-004	..........a	-327.66
	10	2.84167	-9.14359E-002	-9.23011E-002	2.08259E-004	..........a	-327.66
	11	3.1	-9.17189E-002	-9.25699E-002	2.00992E-004	..........a	-327.66
	12	3.35833	-9.19981E-002	-9.28310E-002	2.04192E-004	..........a	-327.66
	13	3.61667	-9.22733E-002	-9.30984E-002	2.06459E-004	..........a	-327.66
	14	3.875	-9.25443E-002	-9.33613E-002	2.04926E-004	..........a	-327.66
	15	4.13333	-9.28115E-002	-9.36133E-002	2.08659E-004	..........a	-327.66
	16	4.39167	-9.30753E-002	-9.38660E-002	1.94526E-004	..........a	-327.66
	17	4.65	-9.33354E-002	-9.41121E-002	2.06926E-004	..........a	-327.66
	18	4.90833	-9.35914E-002	-9.43606E-002	2.01859E-004	..........a	-327.66
	19	5.16667	-9.38435E-002	-9.46013E-002	2.06392E-004	..........a	-327.66
	20	5.425	-9.40923E-002	-9.48442E-002	2.07592E-004	..........a	-327.66
	21	5.68333	-9.43382E-002	-9.50754E-002	2.14792E-004	..........a	-327.66
	22	5.94167	-9.45811E-002	-9.53088E-002	2.16059E-004	..........a	-327.66
	23	6.2	-9.48203E-002	-9.55364E-002	2.07259E-004	..........a	-327.66
	24	6.45833	-9.50560E-002	-9.57664E-002	2.08726E-004	..........a	-327.66
	25	6.71667	-9.52885E-002	-9.59934E-002	2.07726E-004	..........a	-327.66
	26	6.975	-9.55186E-002	-9.62091E-002	1.99926E-004	..........a	-327.66
	27	7.23333	-9.57462E-002	-9.64311E-002	2.01259E-004	..........a	-327.66
	28	7.49167	-9.59710E-002	-9.66518E-002	2.08392E-004	..........a	-327.66
	29	7.75	-9.61933E-002	-9.68710E-002	2.07992E-004	..........a	-327.66
	30	8.00833	-9.64139E-002	-9.70816E-002	2.05459E-004	..........a	-327.66
	31	8.26667	-9.66330E-002	-9.72937E-002	2.05992E-004	..........a	-327.66
	32	8.525	-9.68499E-002	-9.75051E-002	2.04792E-004	..........a	-327.66
	33	8.78333	-9.70643E-002	-9.77112E-002	2.11926E-004	..........a	-327.66
	34	9.04167	-9.72765E-002	-9.79220E-002	1.99792E-004	..........a	-327.66
	35	9.3	-9.74866E-002	-9.81121E-002	2.14059E-004	..........a	-327.66
	36	9.5583	-9.76942E-002	-9.83206E-002	2.08792E-004	..........a	-327.66
	37	9.8167	-9.78989E-002	-9.85163E-002	1.91592E-004	..........a	-327.66
	38	10.075	-9.81009E-002	-9.87056E-002	1.98592E-004	..........a	-327.66
EOC	QUANT	-0.0981009	Open Circuit (V)
PSTATMODEL	IQUANT	7	Pstat Model
PSTATSECTION	LABEL	REF600P-43058	Pstat Section
PSTATSERIALNO	LABEL	43058	Pstat Serial Number
CTRLMODE	IQUANT	1	Control Mode
ELECTROMETER	IQUANT	0	RE=0 or CS=1
IESTAB	IQUANT	2	I/E Stability
CASPEED	IQUANT	4	Control Amp Speed
CONVENTION	IQUANT	1	Current Convention
ICHRANGE	IQUANT	2	Ich Range
ICHRANGEMODE	TOGGLE	F	Ich Auto Range
ICHOFFSETENABLE	TOGGLE	F	Ich Offset Enable
ICHOFFSET	QUANT	0	Ich Offset (V)
ICHFILTER	IQUANT	2	Ich Filter
VCHRANGE	IQUANT	2	Vch Range
VCHRANGEMODE	TOGGLE	F	Vch Auto Range
VCHOFFSETENABLE	TOGGLE	F	Vch Offset Enable
VCHOFFSET	QUANT	0	Vch Offset (V)
VCHFILTER	IQUANT	2	Vch Filter
ACHRANGE	IQUANT	2	Ach Range
ACHOFFSETENABLE	TOGGLE	F	Ach Offset Enable
ACHOFFSET	QUANT	0	Ach Offset (V)
ACHFILTER	IQUANT	1	Ach Filter
IERANGELOWERLIMIT	IQUANT	1	I/E Range Lower Limit
IERANGEMODE	TOGGLE	T	I/E AutoRange
IERANGE	IQUANT	4	I/E Range
POSFEEDENABLE	TOGGLE	F	Positive Feedback IR Comp
POSFEEDRESISTANCE	QUANT	0	Positive Feedback Resistance (ohm)
ACHSELECT	IQUANT	4	Ach Select
SENSECABLEID	IQUANT	7	Sense Cable ID
PWRCABLEID	IQUANT	7	Power Cable ID
DCCALDATE	LABEL	3/22/2024	DC Calibration Date
ACCALDATE	LABEL	3/22/2024	AC Calibration Date
THERMOSELECT	IQUANT	1	Thermo Select
FRAMEWORKVERSION	LABEL	7.8.4	Framework Version
INSTRUMENTVERSION	LABEL	4.42	Instrument Version
CURVE1	TABLE
	Pt	T	Vf	Im	Vu	Sig	Ach	IERange	Over	Temp
	#	s	V vs. Ref.	A	V	V	V	#	bits	deg C
	0	0.2	-9.80187E-002	9.83003E-010	0.00000E+000	-9.81000E-002	9.70392E-004	5	..........a	-327.66
	2	0.6	-1.18056E-001	-2.53556E-009	0.00000E+000	-1.18100E-001	9.59492E-004	5	..........a	-327.66
	4	1	-1.37964E-001	-5.06699E-009	0.00000E+000	-1.38100E-001	9.55092E-004	5	..........a	-327.66
	6	1.4	-1.58090E-001	-7.46414E-009	0.00000E+000	-1.58100E-001	9.71292E-004	5	..........a	-327.66
	8	1.8	-1.77979E-001	-9.78753E-009	0.00000E+000	-1.78100E-001	9.66492E-004	5	..........a	-327.66
	10	2.2	-1.98044E-001	-1.20222E-008	0.00000E+000	-1.98100E-001	9.71292E-004	5	..........a	-327.66
	12	2.6	-2.17995E-001	-1.41569E-008	0.00000E+000	-2.18100E-001	9.58692E-004	5	..........a	-327.66
	14	3	-2.38002E-001	-1.63081E-008	0.00000E+000	-2.38100E-001	9.67892E-004	5	..........a	-327.66
	16	3.4	-2.57946E-001	-1.84708E-008	0.00000E+000	-2.58100E-001	9.54092E-004	5	..........a	-327.66
	18	3.8	-2.78021E-001	-2.07393E-008	0.00000E+000	-2.78100E-001	9.55892E-004	5	..........a	-327.66
	20	4.2	-2.97963E-001	-2.31009E-008	0.00000E+000	-2.98100E-001	9.57492E-004	5	..........a	-327.66
	22	4.6	-3.17936E-001	-2.55775E-008	0.00000E+000	-3.18100E-001	9.59592E-004	5	..........a	-327.66
	24	5	-3.37981E-001	-2.81702E-008	0.00000E+000	-3.38100E-001	9.54292E-004	5	..........a	-327.66
	26	5.4	-3.58027E-001	-3.08371E-008	0.00000E+000	-3.58100E-001	9.67592E-004	5	..........a	-327.66
	28	5.8	-3.77969E-001	-3.35310E-008	0.00000E+000	-3.78100E-001	9.62492E-004	5	..........a	-327.66
	30	6.2	-3.97977E-001	-3.60935E-008	0.00000E+000	-3.98100E-001	9.52592E-004	5	..........a	-327.66
	32	6.6	-4.17984E-001	-3.85727E-008	0.00000E+000	-4.18100E-001	9.63192E-004	5	..........a	-327.66
	34	7	-4.37964E-001	-4.09034E-008	0.00000E+000	-4.38100E-001	9.55392E-004	5	..........a	-327.66
	36	7.4	-4.57962E-001	-4.30870E-008	0.00000E+000	-4.58100E-001	9.49592E-004	5	..........a	-327.66
	38	7.8	-4.77920E-001	-4.52120E-008	0.00000E+000	-4.78100E-001	9.64792E-004	5	..........a	-327.66
	40	8.2	-4.97929E-001	-4.73166E-008	0.00000E+000	-4.98100E-001	9.58692E-004	5	..........a	-327.66
	42	8.6	-5.17937E-001	-4.94476E-008	0.00000E+000	-5.18100E-001	9.60092E-004	5	..........a	-327.66
	44	9	-5.37930E-001	-5.15824E-008	0.00000E+000	-5.38100E-001	9.75392E-004	5	..........a	-327.66
	46	9.4	-5.57987E-001	-5.37807E-008	0.00000E+000	-5.58100E-001	9.57092E-004	5	..........a	-327.66
	48	9.8	-5.77911E-001	-5.60327E-008	0.00000E+000	-5.78100E-001	9.54792E-004	5	..........a	-327.66
	50	10.2	-5.97975E-001	-5.85168E-008	0.00000E+000	-5.98100E-001	9.70892E-004	5	..........a	-327.66
	52	10.6	-5.77933E-001	-4.59142E-008	0.00000E+000	-5.78100E-001	9.65292E-004	5	..........a	-327.66
	54	11	-5.57956E-001	-3.90452E-008	0.00000E+000	-5.58100E-001	9.77892E-004	5	..........a	-327.66
	56	11.4	-5.37939E-001	-3.39938E-008	0.00000E+000	-5.38100E-001	9.82092E-004	5	..........a	-327.66
	58	11.8	-5.17946E-001	-2.98936E-008	0.00000E+000	-5.18100E-001	9.82292E-004	5	..........a	-327.66
	60	12.2	-4.97897E-001	-2.63110E-008	0.00000E+000	-4.98100E-001	9.66492E-004	5	..........a	-327.66
	62	12.6	-4.78044E-001	-2.30978E-008	0.00000E+000	-4.78100E-001	9.68492E-004	5	..........a	-327.66
	64	13	-4.57932E-001	-2.01515E-008	0.00000E+000	-4.58100E-001	9.70292E-004	5	..........a	-327.66
	66	13.4	-4.37980E-001	-1.74459E-008	0.00000E+000	-4.38100E-001	9.79192E-004	5	..........a	-327.66
	68	13.8	-4.17893E-001	-1.48999E-008	0.00000E+000	-4.18100E-001	9.73092E-004	5	..........a	-327.66
	70	14.2	-3.98026E-001	-1.25137E-008	0.00000E+000	-3.98100E-001	9.55992E-004	5	..........a	-327.66
	72	14.6	-3.77958E-001	-1.02414E-008	0.00000E+000	-3.78100E-001	9.58592E-004	5	..........a	-327.66
	74	15	-3.57981E-001	-8.06287E-009	0.00000E+000	-3.58100E-001	9.75492E-004	5	..........a	-327.66
	76	15.4	-3.37961E-001	-5.94433E-009	0.00000E+000	-3.38100E-001	9.65592E-004	5	..........a	-327.66
	78	15.8	-3.17901E-001	-3.94431E-009	0.00000E+000	-3.18100E-001	9.61992E-004	5	..........a	-327.66
	80	16.2	-2.97998E-001	-2.01546E-009	0.00000E+000	-2.98100E-001	9.71392E-004	5	..........a	-327.66
	82	16.6	-2.78137E-001	-1.88041E-010	0.00000E+000	-2.78100E-001	9.54192E-004	5	..........a	-327.66
	84	17	-2.57945E-001	1.67838E-009	0.00000E+000	-2.58100E-001	9.75692E-004	5	..........a	-327.66
	86	17.4	-2.38028E-001	3.40415E-009	0.00000E+000	-2.38100E-001	9.73892E-004	5	..........a	-327.66
	88	17.8	-2.18000E-001	5.07108E-009	0.00000E+000	-2.18100E-001	9.62092E-004	5	..........a	-327.66
	90	18.2	-1.98069E-001	6.67622E-009	0.00000E+000	-1.98100E-001	9.72692E-004	5	..........a	-327.66
	92	18.6	-1.78009E-001	8.27008E-009	0.00000E+000	-1.78100E-001	9.75192E-004	5	..........a	-327.66
	94	19	-1.58030E-001	9.84122E-009	0.00000E+000	-1.58100E-001	9.75092E-004	5	..........a	-327.66
	96	19.4	-1.37955E-001	1.14080E-008	0.00000E+000	-1.38100E-001	9.72392E-004	5	..........a	-327.66
	98	19.8	-1.18149E-001	1.29282E-008	0.00000E+000	-1.18100E-001	9.50192E-004	5	..........a	-327.66
	100	20.2	-9.80143E-002	1.44796E-008	0.00000E+000	-9.81000E-002	9.75292E-004	5	..........a	-327.66
	102	20.6	-7.80640E-002	1.60551E-008	0.00000E+000	-7.81000E-002	9.65792E-004	5	..........a	-327.66
	104	21	-5.80355E-002	1.77077E-008	0.00000E+000	-5.81000E-002	9.73892E-004	5	..........a	-327.66
	106	21.4	-3.80364E-002	1.94599E-008	0.00000E+000	-3.81000E-002	9.67092E-004	5	..........a	-327.66
	108	21.8	-1.80185E-002	2.13371E-008	0.00000E+000	-1.81000E-002	9.65892E-004	5	..........a	-327.66
	110	22.2	1.89249E-003	2.32301E-008	0.00000E+000	1.90000E-003	9.53992E-004	5	..........a	-327.66
	112	22.6	2.19768E-002	2.52073E-008	0.00000E+000	2.19000E-002	9.78492E-004	5	..........a	-327.66
	114	23	4.19668E-002	2.72303E-008	0.00000E+000	4.19000E-002	9.66792E-004	5	..........a	-327.66
	116	23.4	6.19854E-002	2.93162E-008	0.00000E+000	6.19000E-002	9.59892E-004	5	..........a	-327.66
	118	23.8	8.19476E-002	3.14731E-008	0.00000E+000	8.19000E-002	9.59192E-004	5	..........a	-327.66
	120	24.2	1.01943E-001	3.37729E-008	0.00000E+000	1.01900E-001	9.66092E-004	5	..........a	-327.66
	122	24.6	1.21948E-001	3.64009E-008	0.00000E+000	1.21900E-001	9.65992E-004	5	..........a	-327.66
	124	25	1.41979E-001	4.81213E-008	0.00000E+000	1.41900E-001	9.77192E-004	5	..........a	-327.66
	126	25.4	1.61929E-001	5.05572E-008	0.00000E+000	1.61900E-001	9.61392E-004	5	..........a	-327.66
	128	25.8	1.81981E-001	4.67884E-008	0.00000E+000	1.81900E-001	9.73492E-004	5	..........a	-327.66
	130	26.2	2.01877E-001	4.86347E-008	0.00000E+000	2.01900E-001	9.81092E-004	5	..........a	-327.66
	132	26.6	2.21938E-001	5.14855E-008	0.00000E+000	2.21900E-001	9.77392E-004	5	..........a	-327.66
	134	27	2.41895E-001	5.47816E-008	0.00000E+000	2.41900E-001	9.60992E-004	5	..........a	-327.66
	136	27.4	2.61947E-001	5.82323E-008	0.00000E+000	2.61900E-001	9.70192E-004	5	..........a	-327.66
	138	27.8	2.81855E-001	6.16967E-008	0.00000E+000	2.81900E-001	9.70792E-004	5	..........a	-327.66
	140	28.2	3.01962E-001	6.53323E-008	0.00000E+000	3.01900E-001	9.71892E-004	5	..........a	-327.66
	142	28.6	3.21833E-001	6.92267E-008	0.00000E+000	3.21900E-001	9.57992E-004	5	..........a	-327.66
	144	29	3.41950E-001	7.36399E-008	0.00000E+000	3.41900E-001	9.65292E-004	5	..........a	-327.66
	146	29.4	3.61876E-001	7.86483E-008	0.00000E+000	3.61900E-001	9.66292E-004	5	..........a	-327.66
	148	29.8	3.81932E-001	8.42655E-008	0.00000E+000	3.81900E-001	9.54192E-004	5	..........a	-327.66
	150	30.2	4.01860E-001	9.03903E-008	0.00000E+000	4.01900E-001	9.67192E-004	5	..........a	-327.66
	152	30.6	4.21879E-001	9.68681E-008	0.00000E+000	4.21900E-001	9.49192E-004	5	..........a	-327.66
	154	31	4.41815E-001	1.03480E-007	0.00000E+000	4.41900E-001	9.61892E-004	5	..........a	-327.66
	156	31.4	4.61913E-001	1.10154E-007	0.00000E+000	4.61900E-001	9.44592E-004	5	..........a	-327.66
	158	31.8	4.81839E-001	1.16800E-007	0.00000E+000	4.81900E-001	9.80892E-004	5	..........a	-327.66
	160	32.2	5.01901E-001	1.23423E-007	0.00000E+000	5.01900E-001	9.56992E-004	5	..........a	-327.66
	162	32.6	5.21812E-001	1.29924E-007	0.00000E+000	5.21900E-001	9.47192E-004	5	..........a	-327.66
	164	33	5.41895E-001	1.36135E-007	0.00000E+000	5.41900E-001	9.55292E-004	5	..........a	-327.66
	166	33.4	5.61820E-001	1.42098E-007	0.00000E+000	5.61900E-001	9.71192E-004	5	..........a	-327.66
	168	33.8	5.81921E-001	1.47861E-007	0.00000E+000	5.81900E-001	9.52592E-004	5	..........a	-327.66
	170	34.2	6.01826E-001	1.53372E-007	0.00000E+000	6.01900E-001	9.58692E-004	5	..........a	-327.66
	172	34.6	6.21824E-001	1.58823E-007	0.00000E+000	6.21900E-001	9.55592E-004	5	..........a	-327.66
	174	35	6.41753E-001	1.64272E-007	0.00000E+000	6.41900E-001	9.66792E-004	5	..........a	-327.66
	176	35.4	6.61883E-001	1.69750E-007	0.00000E+000	6.61900E-001	9.47192E-004	5	..........a	-327.66
	178	35.8	6.81769E-001	1.75442E-007	0.00000E+000	6.81900E-001	9.57492E-004	5	..........a	-327.66
	180	36.2	7.01796E-001	1.81518E-007	0.00000E+000	7.01900E-001	9.40892E-004	5	..........a	-327.66
	182	36.6	7.21730E-001	1.88186E-007	0.00000E+000	7.21900E-001	9.67792E-004	5	..........a	-327.66
	184	37	7.41850E-001	1.95693E-007	0.00000E+000	7.41900E-001	9.51292E-004	5	..........a	-327.66
	186	37.4	7.61759E-001	2.04654E-007	0.00000E+000	7.61900E-001	9.59092E-004	5	..........a	-327.66
	188	37.8	7.81835E-001	2.15499E-007	0.00000E+000	7.81900E-001	9.45592E-004	5	..........a	-327.66
	190	38.2	8.01745E-001	2.27155E-007	0.00000E+000	8.01900E-001	9.59892E-004	5	..........a	-327.66
CURVE2	TABLE
	Pt	T	Vf	Im	Vu	Sig	Ach	IERange	Over	Temp
	#	s	V vs. Ref.	A	V	V	V	#	bits	deg C
	191	38.4	7.89948E-001	1.79019E-007	0.00000E+000	7.90000E-001	9.66392E-004	5	..........a	-327.66
	194	39	7.59883E-001	1.16500E-007	0.00000E+000	7.60000E-001	9.65292E-004	5	..........a	-327.66
	197	39.6	7.29902E-001	8.65715E-008	0.00000E+000	7.30000E-001	9.73792E-004	5	..........a	-327.66
	200	40.2	6.99921E-001	6.88121E-008	0.00000E+000	7.00000E-001	9.47992E-004	5	..........a	-327.66
	203	40.8	6.69973E-001	5.66352E-008	0.00000E+000	6.70000E-001	9.68992E-004	5	..........a	-327.66
	206	41.4	6.39884E-001	4.73156E-008	0.00000E+000	6.40000E-001	9.68392E-004	5	..........a	-327.66
	209	42	6.09963E-001	3.96715E-008	0.00000E+000	6.10000E-001	9.63092E-004	5	..........a	-327.66
	212	42.6	5.79998E-001	3.33218E-008	0.00000E+000	5.80000E-001	9.56492E-004	5	..........a	-327.66
	215	43.2	5.50019E-001	2.79227E-008	0.00000E+000	5.50000E-001	9.71092E-004	5	..........a	-327.66
	218	43.8	5.19957E-001	2.28523E-008	0.00000E+000	5.20000E-001	9.74592E-004	5	..........a	-327.66
	221	44.4	4.89919E-001	1.84657E-008	0.00000E+000	4.90000E-001	9.62292E-004	5	..........a	-327.66
	224	45	4.59990E-001	1.43607E-008	0.00000E+000	4.60000E-001	9.65992E-004	5	..........a	-327.66
	227	45.6	4.29990E-001	9.88694E-009	0.00000E+000	4.30000E-001	9.72992E-004	5	..........a	-327.66
	230	46.2	3.99973E-001	5.11553E-009	0.00000E+000	4.00000E-001	9.54392E-004	5	..........a	-327.66
	233	46.8	3.70025E-001	-1.10608E-010	0.00000E+000	3.70000E-001	9.62292E-004	5	..........a	-327.66
	236	47.4	3.40082E-001	-5.84937E-009	0.00000E+000	3.40000E-001	9.69792E-004	5	..........a	-327.66
	239	48	3.10037E-001	-1.22296E-008	0.00000E+000	3.10000E-001	9.65792E-004	5	..........a	-327.66
	242	48.6	2.79992E-001	-1.96002E-008	0.00000E+000	2.80000E-001	9.62992E-004	5	..........a	-327.66
	245	49.2	2.50014E-001	-2.82259E-008	0.00000E+000	2.50000E-001	9.73792E-004	5	..........a	-327.66
	248	49.8	2.20105E-001	-3.75225E-008	0.00000E+000	2.20000E-001	9.56792E-004	5	..........a	-327.66
	251	50.4	1.90124E-001	-4.57030E-008	0.00000E+000	1.90000E-001	9.67292E-004	5	..........a	-327.66
	254	51	1.60071E-001	-4.94004E-008	0.00000E+000	1.60000E-001	9.78392E-004	5	..........a	-327.66
	257	51.6	1.30092E-001	-4.66162E-008	0.00000E+000	1.30000E-001	9.65692E-004	5	..........a	-327.66
	260	52.2	1.00123E-001	-3.92989E-008	0.00000E+000	1.00000E-001	9.62092E-004	5	..........a	-327.66
	263	52.8	7.00521E-002	-3.13460E-008	0.00000E+000	7.00000E-002	9.61292E-004	5	..........a	-327.66
	266	53.4	4.00777E-002	-2.71494E-008	0.00000E+000	4.00000E-002	9.55392E-004	5	..........a	-327.66
[...]
	1034	207	7.59902E-001	9.64043E-008	0.00000E+000	7.60000E-001	9.73692E-004	5	..........a	-327.66
	1035	207.2	7.49992E-001	8.62922E-008	0.00000E+000	7.50000E-001	9.96092E-004	5	..........a	-327.66
	1036	207.4	7.39898E-001	7.80787E-008	0.00000E+000	7.40000E-001	9.75892E-004	5	..........a	-327.66
	1037	207.6	7.29946E-001	7.13669E-008	0.00000E+000	7.30000E-001	9.79092E-004	5	..........a	-327.66
	1038	207.8	7.19917E-001	6.56462E-008	0.00000E+000	7.20000E-001	9.66692E-004	5	..........a	-327.66
	1039	208	7.09993E-001	6.07182E-008	0.00000E+000	7.10000E-001	9.70092E-004	5	..........a	-327.66
	1040	208.2	6.99925E-001	5.64488E-008	0.00000E+000	7.00000E-001	9.63992E-004	5	..........a	-327.66
	1041	208.4	6.89924E-001	5.26737E-008	0.00000E+000	6.90000E-001	9.83792E-004	5	..........a	-327.66
	1042	208.6	6.79936E-001	4.92389E-008	0.00000E+000	6.80000E-001	9.73892E-004	5	..........a	-327.66
	1043	208.8	6.69981E-001	4.61062E-008	0.00000E+000	6.70000E-001	9.68492E-004	5	..........a	-327.66
	1044	209	6.59930E-001	4.32083E-008	0.00000E+000	6.60000E-001	9.76892E-004	5	..........a	-327.66
	1045	209.2	6.49937E-001	4.04721E-008	0.00000E+000	6.50000E-001	9.71392E-004	5	..........a	-327.66
	1046	209.4	6.39902E-001	3.79400E-008	0.00000E+000	6.40000E-001	9.73392E-004	5	..........a	-327.66
	1047	209.6	6.30037E-001	3.55433E-008	0.00000E+000	6.30000E-001	9.63792E-004	5	..........a	-327.66
	1048	209.8	6.19944E-001	3.32546E-008	0.00000E+000	6.20000E-001	9.60792E-004	5	..........a	-327.66
	1049	210	6.09974E-001	3.10713E-008	0.00000E+000	6.10000E-001	9.75992E-004	5	..........a	-327.66
	1050	210.2	5.99976E-001	2.90177E-008	0.00000E+000	6.00000E-001	9.76092E-004	5	..........a	-327.66
	1051	210.4	5.90030E-001	2.71468E-008	0.00000E+000	5.90000E-001	9.87792E-004	5	..........a	-327.66
	1052	210.6	5.80009E-001	2.54152E-008	0.00000E+000	5.80000E-001	9.53792E-004	5	..........a	-327.66
	1053	210.8	5.69946E-001	2.38010E-008	0.00000E+000	5.70000E-001	9.73992E-004	5	..........a	-327.66
	1054	211	5.59946E-001	2.21965E-008	0.00000E+000	5.60000E-001	9.70492E-004	5	..........a	-327.66
	1055	211.2	5.50031E-001	2.05491E-008	0.00000E+000	5.50000E-001	9.68992E-004	5	..........a	-327.66
	1056	211.4	5.39984E-001	1.89271E-008	0.00000E+000	5.40000E-001	9.60192E-004	5	..........a	-327.66
	1057	211.6	5.29957E-001	1.73381E-008	0.00000E+000	5.30000E-001	9.68292E-004	5	..........a	-327.66
	1058	211.8	5.19984E-001	1.58523E-008	0.00000E+000	5.20000E-001	9.65492E-004	5	..........a	-327.66
	1059	212	5.09994E-001	1.44706E-008	0.00000E+000	5.10000E-001	9.82092E-004	5	..........a	-327.66
	1060	212.2	5.00052E-001	1.32591E-008	0.00000E+000	5.00000E-001	9.70892E-004	5	..........a	-327.66
	1061	212.4	4.89932E-001	1.21041E-008	0.00000E+000	4.90000E-001	9.70292E-004	5	..........a	-327.66
	1062	212.6	4.79924E-001	1.09278E-008	0.00000E+000	4.80000E-001	9.97292E-004	5	..........a	-327.66
	1063	212.8	4.70030E-001	9.71749E-009	0.00000E+000	4.70000E-001	9.70792E-004	5	..........a	-327.66
	1064	213	4.59997E-001	8.42653E-009	0.00000E+000	4.60000E-001	9.63992E-004	5	..........a	-327.66
	1065	213.2	4.49803E-001	7.05460E-009	0.00000E+000	4.50000E-001	9.78892E-004	5	..........a	-327.66
	1066	213.4	4.39952E-001	5.66587E-009	0.00000E+000	4.40000E-001	9.70092E-004	5	..........a	-327.66
	1067	213.6	4.29997E-001	4.28838E-009	0.00000E+000	4.30000E-001	9.77692E-004	5	..........a	-327.66
	1068	213.8	4.20005E-001	2.77718E-009	0.00000E+000	4.20000E-001	9.56892E-004	5	..........a	-327.66
	1069	214	4.09990E-001	1.27933E-009	0.00000E+000	4.10000E-001	9.72392E-004	5	..........a	-327.66
	1070	214.2	3.99997E-001	-3.37756E-010	0.00000E+000	4.00000E-001	9.77092E-004	5	..........a	-327.66
	1071	214.4	3.90034E-001	-1.97541E-009	0.00000E+000	3.90000E-001	9.76092E-004	5	..........a	-327.66
	1072	214.6	3.80056E-001	-3.61598E-009	0.00000E+000	3.80000E-001	9.48992E-004	5	..........a	-327.66
	1073	214.8	3.70061E-001	-5.43342E-009	0.00000E+000	3.70000E-001	9.62892E-004	5	..........a	-327.66
	1074	215	3.60021E-001	-7.19331E-009	0.00000E+000	3.60000E-001	9.64092E-004	5	..........a	-327.66
	1075	215.2	3.50084E-001	-9.13184E-009	0.00000E+000	3.50000E-001	9.64392E-004	5	..........a	-327.66
	1076	215.4	3.40087E-001	-1.11450E-008	0.00000E+000	3.40000E-001	9.59892E-004	5	..........a	-327.66
	1077	215.6	3.30046E-001	-1.32233E-008	0.00000E+000	3.30000E-001	9.70592E-004	5	..........a	-327.66
	1078	215.8	3.20070E-001	-1.54451E-008	0.00000E+000	3.20000E-001	9.59392E-004	5	..........a	-327.66
	1079	216	3.10041E-001	-1.77749E-008	0.00000E+000	3.10000E-001	9.78292E-004	5	..........a	-327.66
	1080	216.2	3.00045E-001	-2.02881E-008	0.00000E+000	3.00000E-001	9.61092E-004	5	..........a	-327.66
	1081	216.4	2.90051E-001	-2.29147E-008	0.00000E+000	2.90000E-001	9.70392E-004	5	..........a	-327.66
	1082	216.6	2.80024E-001	-2.57765E-008	0.00000E+000	2.80000E-001	9.57392E-004	5	..........a	-327.66
	1083	216.8	2.70088E-001	-2.87497E-008	0.00000E+000	2.70000E-001	9.61592E-004	5	..........a	-327.66
	1084	217	2.60071E-001	-3.19130E-008	0.00000E+000	2.60000E-001	9.52292E-004	5	..........a	-327.66
	1085	217.2	2.50034E-001	-3.52240E-008	0.00000E+000	2.50000E-001	9.59492E-004	5	..........a	-327.66
	1086	217.4	2.40061E-001	-3.86125E-008	0.00000E+000	2.40000E-001	9.69192E-004	5	..........a	-327.66
	1087	217.6	2.30026E-001	-4.21633E-008	0.00000E+000	2.30000E-001	9.80792E-004	5	..........a	-327.66
	1088	217.8	2.20072E-001	-4.55500E-008	0.00000E+000	2.20000E-001	9.49392E-004	5	..........a	-327.66
	1089	218	2.10051E-001	-4.87990E-008	0.00000E+000	2.10000E-001	9.76592E-004	5	..........a	-327.66
	1090	218.2	2.00096E-001	-5.18354E-008	0.00000E+000	2.00000E-001	9.85092E-004	5	..........a	-327.66
	1091	218.4	1.90120E-001	-5.43344E-008	0.00000E+000	1.90000E-001	9.74692E-004	5	..........a	-327.66
	1092	218.6	1.80140E-001	-5.62382E-008	0.00000E+000	1.80000E-001	9.69992E-004	5	..........a	-327.66
	1093	218.8	1.70087E-001	-5.73866E-008	0.00000E+000	1.70000E-001	9.59792E-004	5	..........a	-327.66
	1094	219	1.60066E-001	-5.76437E-008	0.00000E+000	1.60000E-001	9.72192E-004	5	..........a	-327.66
	1095	219.2	1.50098E-001	-5.70085E-008	0.00000E+000	1.50000E-001	9.61292E-004	5	..........a	-327.66
	1096	219.4	1.40143E-001	-5.55298E-008	0.00000E+000	1.40000E-001	9.47292E-004	5	..........a	-327.66
	1097	219.6	1.30080E-001	-5.32772E-008	0.00000E+000	1.30000E-001	9.56092E-004	5	..........a	-327.66
	1098	219.8	1.20099E-001	-5.03897E-008	0.00000E+000	1.20000E-001	9.70692E-004	5	..........a	-327.66
	1099	220	1.10114E-001	-4.70543E-008	0.00000E+000	1.10000E-001	9.60492E-004	5	..........a	-327.66
	1100	220.2	1.00129E-001	-4.34733E-008	0.00000E+000	1.00000E-001	9.71892E-004	5	..........a	-327.66
	1101	220.4	9.01181E-002	-3.98449E-008	0.00000E+000	9.00000E-002	9.63692E-004	5	..........a	-327.66
	1102	220.6	8.00496E-002	-3.65139E-008	0.00000E+000	8.00000E-002	9.80592E-004	5	..........a	-327.66
	1103	220.8	7.00333E-002	-3.36449E-008	0.00000E+000	7.00000E-002	9.78892E-004	5	..........a	-327.66
	1104	221	6.01109E-002	-3.13403E-008	0.00000E+000	6.00000E-002	9.61092E-004	5	..........a	-327.66
	1105	221.2	5.00925E-002	-2.95759E-008	0.00000E+000	5.00000E-002	9.67792E-004	5	..........a	-327.66
	1106	221.4	4.00192E-002	-2.83026E-008	0.00000E+000	4.00000E-002	9.71192E-004	5	..........a	-327.66
	1107	221.6	3.00465E-002	-2.74002E-008	0.00000E+000	3.00000E-002	9.61692E-004	5	..........a	-327.66
	1108	221.8	2.01545E-002	-2.67764E-008	0.00000E+000	2.00000E-002	9.57692E-004	5	..........a	-327.66
	1109	222	1.01081E-002	-2.65766E-008	0.00000E+000	1.00000E-002	9.71992E-004	5	..........a	-327.66
	1110	222.2	3.61916E-005	-2.69194E-008	0.00000E+000	7.45058E-009	9.58192E-004	5	..........a	-327.66
	1111	222.4	-9.88116E-003	-2.66639E-008	0.00000E+000	-1.00000E-002	9.54692E-004	5	..........a	-327.66
	1112	222.6	-1.99124E-002	-2.65634E-008	0.00000E+000	-2.00000E-002	9.50892E-004	5	..........a	-327.66
	1113	222.8	-2.99403E-002	-2.68069E-008	0.00000E+000	-3.00000E-002	9.79492E-004	5	..........a	-327.66
	1114	223	-3.99140E-002	-2.68780E-008	0.00000E+000	-4.00000E-002	9.62292E-004	5	..........a	-327.66
	1115	223.2	-4.99256E-002	-2.73035E-008	0.00000E+000	-5.00000E-002	9.61092E-004	5	..........a	-327.66
	1116	223.4	-5.98834E-002	-2.80347E-008	0.00000E+000	-6.00000E-002	9.67492E-004	5	..........a	-327.66
	1117	223.6	-6.99314E-002	-2.81846E-008	0.00000E+000	-7.00000E-002	9.81892E-004	5	..........a	-327.66
	1118	223.8	-7.99303E-002	-2.90342E-008	0.00000E+000	-8.00000E-002	9.79592E-004	5	..........a	-327.66
	1119	224	-8.99012E-002	-2.94577E-008	0.00000E+000	-9.00000E-002	9.62692E-004	5	..........a	-327.66
	1120	224.2	-9.98910E-002	-3.01045E-008	0.00000E+000	-1.00000E-001	9.77092E-004	5	..........a	-327.66