File: example_project/raw_outputs/20240321_D_GM0016_HL03_E01_CV50k.DTA
EXPLAIN
TAG	CV
TITLE	LABEL	Cyclic Voltammetry	Test &Identifier
DATE	LABEL	3/21/2024	Date
TIME	LABEL	16:26:04	Time
NOTES	NOTES	1	&Notes...

PSTAT	PSTAT	REF600P-43058	Potentiostat
VINIT	POTEN	0.00000E+000	T	Initial &E (V)
VLIMIT1	POTEN	-6.00000E-001	F	Scan Limit &1 (V)
VLIMIT2	POTEN	8.00000E-001	F	Scan Limit &2 (V)
VFINAL	POTEN	0.00000E+000	T	Final &E (V)
SCANRATE	QUANT	4.99999E+004	&Scan Rate (mV/s)
STEPSIZE	QUANT	1.00000E+001	St&ep Size (mV)
CYCLES	IQUANT	6	C&ycles (#)
IMODE	SELECTOR	1	I/E Range &Mode
IRANGE	QUANT	1.00000E-005	&Max Current (mA)
AREA	QUANT	1.00000E+000	Electrode &Area (cm^2)
ELECTRODETYPE	SELECTOR	0	Electrode Type
STRIPPING	TOGGLE	F	Used for Stripping
POLARITY	TOGGLE	F	Signal Polarity
CONDIT	TWOPARAM	F	1.50000E+001	0.00000E+000	Conditionin&g	Time(s)	E(V)
DELAY	TWOPARAM	T	1.00000E+001	0.00000E+000	Init. De&lay	Time(s)	Stab.(mV/s)
EQDELAY	QUANT	1.00000E+001	Equil. &Time (s)
IRCOMP	SELECTOR	0	IRCom&p
PFCOR	QUANT	5.00000E+001	PF Corr. (ohm)
SAMPLINGMODE	SELECTOR	1	Sampling &Mode
OCVCURVE	TABLE	39
	Pt	T	Vf	Vm	Ach	Over	Temp
	#	s	V vs. Ref.	V	V	bits	deg C
	0	0.258333	3.19740E-001	3.19740E-001	2.15489E-004	..........a	-327.66
	1	0.516667	3.19746E-001	3.20076E-001	2.24022E-004	..........a	-327.66
	2	0.775	3.19791E-001	3.20664E-001	2.27756E-004	..........a	-327.66
	3	1.03333	3.19925E-001	3.20772E-001	2.35289E-004	..........a	-327.66
	4	1.29167	3.20164E-001	3.21023E-001	2.24222E-004	..........a	-327.66
	5	1.55	3.20457E-001	3.21345E-001	2.00556E-004	..........a	-327.66
	6	1.80833	3.20749E-001	3.21438E-001	2.07556E-004	..........a	-327.66
	7	2.06667	3.21025E-001	3.22243E-001	2.21022E-004	..........a	-327.66
	8	2.325	3.21318E-001	3.22597E-001	2.20889E-004	..........a	-327.66
	9	2.58333	3.21671E-001	3.22871E-001	2.19356E-004	..........a	-327.66
	10	2.84167	3.22076E-001	3.23322E-001	2.34356E-004	..........a	-327.66
	11	3.1	3.22489E-001	3.23678E-001	2.23756E-004	..........a	-327.66
	12	3.35833	3.22886E-001	3.23995E-001	2.28356E-004	..........a	-327.66
	13	3.61667	3.23263E-001	3.24256E-001	2.17489E-004	..........a	-327.66
	14	3.875	3.23618E-001	3.24670E-001	2.26156E-004	..........a	-327.66
	15	4.13333	3.23955E-001	3.25000E-001	2.20489E-004	..........a	-327.66
	16	4.39167	3.24290E-001	3.25481E-001	2.29889E-004	..........a	-327.66
	17	4.65	3.24640E-001	3.25686E-001	2.24356E-004	..........a	-327.66
	18	4.90833	3.25000E-001	3.25964E-001	2.21956E-004	..........a	-327.66
	19	5.16667	3.25348E-001	3.26397E-001	2.30489E-004	..........a	-327.66
	20	5.425	3.25678E-001	3.26700E-001	2.14422E-004	..........a	-327.66
	21	5.68333	3.26008E-001	3.27211E-001	2.30889E-004	..........a	-327.66
	22	5.94167	3.26356E-001	3.27396E-001	2.20822E-004	..........a	-327.66
	23	6.2	3.26716E-001	3.27752E-001	2.18422E-004	..........a	-327.66
	24	6.45833	3.27070E-001	3.28099E-001	2.26222E-004	..........a	-327.66
	25	6.71667	3.27410E-001	3.28510E-001	2.15889E-004	..........a	-327.66
	26	6.975	3.27748E-001	3.28817E-001	2.41356E-004	..........a	-327.66
	27	7.23333	3.28093E-001	3.29085E-001	2.29022E-004	..........a	-327.66
	28	7.49167	3.28437E-001	3.29485E-001	2.23289E-004	..........a	-327.66
	29	7.75	3.28774E-001	3.29814E-001	2.23222E-004	..........a	-327.66
	30	8.00833	3.29111E-001	3.30336E-001	2.28622E-004	..........a	-327.66
	31	8.26667	3.29463E-001	3.30477E-001	2.30956E-004	..........a	-327.66
	32	8.525	3.29823E-001	3.30796E-001	2.22156E-004	..........a	-327.66
	33	8.78333	3.30171E-001	3.31214E-001	2.29022E-004	..........a	-327.66
	34	9.04167	3.30498E-001	3.31482E-001	2.14689E-004	..........a	-327.66
	35	9.3	3.30824E-001	3.31997E-001	2.33756E-004	..........a	-327.66
	36	9.5583	3.31163E-001	3.32190E-001	2.18622E-004	..........a	-327.66
	37	9.8167	3.31514E-001	3.32518E-001	2.26156E-004	..........a	-327.66
	38	10.075	3.31860E-001	3.32879E-001	2.34556E-004	..........a	-327.66
EOC	QUANT	0.33186	Open Circuit (V)
PSTATMODEL	IQUANT	7	Pstat Model
PSTATSECTION	LABEL	REF600P-43058	Pstat Section
PSTATSERIALNO	LABEL	43058	Pstat Serial Number
CTRLMODE	IQUANT	1	Control Mode
ELECTROMETER	IQUANT	0	RE=0 or CS=1
IESTAB	IQUANT	2	I/E Stability
CASPEED	IQUANT	4	Control Amp Speed
CONVENTION	IQUANT	1	Current Convention
ICHRANGE	IQUANT	2	Ich Range
ICHRANGEMODE	TOGGLE	F	Ich Auto Range
ICHOFFSETENABLE	TOGGLE	F	Ich Offset Enable
ICHOFFSET	QUANT	0	Ich Offset (V)
ICHFILTER	IQUANT	1	Ich Filter
VCHRANGE	IQUANT	2	Vch Range
VCHRANGEMODE	TOGGLE	F	Vch Auto Range
VCHOFFSETENABLE	TOGGLE	F	Vch Offset Enable
VCHOFFSET	QUANT	0	Vch Offset (V)
VCHFILTER	IQUANT	1	Vch Filter
ACHRANGE	IQUANT	2	Ach Range
ACHOFFSETENABLE	TOGGLE	F	Ach Offset Enable
ACHOFFSET	QUANT	0	Ach Offset (V)
ACHFILTER	IQUANT	1	Ach Filter
IERANGELOWERLIMIT	IQUANT	1	I/E Range Lower Limit
IERANGEMODE	TOGGLE	F	I/E AutoRange
IERANGE	IQUANT	4	I/E Range
POSFEEDENABLE	TOGGLE	F	Positive Feedback IR Comp
POSFEEDRESISTANCE	QUANT	0	Positive Feedback Resistance (ohm)
ACHSELECT	IQUANT	4	Ach Select
SENSECABLEID	IQUANT	7	Sense Cable ID
PWRCABLEID	IQUANT	7	Power Cable ID
DCCALDATE	LABEL	12/18/2023	DC Calibration Date
ACCALDATE	LABEL	12/18/2023	AC Calibration Date
THERMOSELECT	IQUANT	1	Thermo Select
FRAMEWORKVERSION	LABEL	7.8.4	Framework Version
INSTRUMENTVERSION	LABEL	4.42	Instrument Version
CURVE1	TABLE
	Pt	T	Vf	Im	Vu	Sig	Ach	IERange	Over	Temp
	#	s	V vs. Ref.	A	V	V	V	#	bits	deg C
	0	0.0002	3.31770E-001	9.78801E-012	0.00000E+000	3.31850E-001	-3.19978E-004	4	..........a	-327.66
	3	0.0008	3.01970E-001	-3.27225E-010	0.00000E+000	3.01850E-001	8.00223E-005	4	..........a	-327.66
	6	0.0014	2.71770E-001	-7.72242E-010	0.00000E+000	2.71850E-001	8.00223E-005	4	..........a	-327.66
	9	0.002	2.41770E-001	-1.28026E-009	0.00000E+000	2.41850E-001	8.00223E-005	4	..........a	-327.66
	12	0.0026	2.11970E-001	-1.82828E-009	0.00000E+000	2.11850E-001	8.00223E-005	4	..........a	-327.66
	15	0.0032	1.81970E-001	-2.41030E-009	0.00000E+000	1.81850E-001	8.00223E-005	4	..........a	-327.66
	18	0.0038	1.51870E-001	-3.02733E-009	0.00000E+000	1.51850E-001	8.00223E-005	4	..........a	-327.66
	21	0.0044	1.21970E-001	-3.67235E-009	0.00000E+000	1.21850E-001	8.00223E-005	4	..........a	-327.66
	24	0.005	9.16695E-002	-4.35538E-009	0.00000E+000	9.18500E-002	8.00223E-005	4	..........a	-327.66
	27	0.0056	6.18695E-002	-5.06641E-009	0.00000E+000	6.18500E-002	8.00223E-005	4	..........a	-327.66
	30	0.0062	3.17695E-002	-5.82944E-009	0.00000E+000	3.18500E-002	8.00223E-005	4	..........a	-327.66
	33	0.0068	1.96952E-003	-6.66047E-009	0.00000E+000	1.85000E-003	8.00223E-005	4	..........a	-327.66
	36	0.0074	-2.80305E-002	-7.65851E-009	0.00000E+000	-2.81500E-002	8.00223E-005	4	..........a	-327.66
	39	0.008	-5.79305E-002	-9.12456E-009	0.00000E+000	-5.81500E-002	8.00223E-005	4	..........a	-327.66
	42	0.0086	-8.81305E-002	-1.11586E-008	0.00000E+000	-8.81500E-002	8.00223E-005	4	..........a	-327.66
	45	0.0092	-1.18030E-001	-1.31027E-008	0.00000E+000	-1.18150E-001	8.00223E-005	4	..........a	-327.66
	48	0.0098	-1.48030E-001	-1.46028E-008	0.00000E+000	-1.48150E-001	8.00223E-005	4	..........a	-327.66
	51	0.0104	-1.78030E-001	-1.57868E-008	0.00000E+000	-1.78150E-001	8.00223E-005	4	..........a	-327.66
	54	0.011	-2.07930E-001	-1.67899E-008	0.00000E+000	-2.08150E-001	8.00223E-005	4	..........a	-327.66
	57	0.0116	-2.38130E-001	-1.76869E-008	0.00000E+000	-2.38150E-001	-3.19978E-004	4	..........a	-327.66
	60	0.0122	-2.67830E-001	-1.85479E-008	0.00000E+000	-2.68150E-001	-3.19978E-004	4	..........a	-327.66
	63	0.0128	-2.97930E-001	-1.94000E-008	0.00000E+000	-2.98150E-001	-3.19978E-004	4	..........a	-327.66
	66	0.0134	-3.27930E-001	-2.02800E-008	0.00000E+000	-3.28150E-001	8.00223E-005	4	..........a	-327.66
	69	0.014	-3.57930E-001	-2.12200E-008	0.00000E+000	-3.58150E-001	8.00223E-005	4	..........a	-327.66
	72	0.0146	-3.87830E-001	-2.22341E-008	0.00000E+000	-3.88150E-001	8.00223E-005	4	..........a	-327.66
	75	0.0152	-4.17930E-001	-2.33411E-008	0.00000E+000	-4.18150E-001	-3.19978E-004	4	..........a	-327.66
	78	0.0158	-4.48030E-001	-2.45292E-008	0.00000E+000	-4.48150E-001	8.00223E-005	4	..........a	-327.66
	81	0.0164	-4.77930E-001	-2.57952E-008	0.00000E+000	-4.78150E-001	8.00223E-005	4	..........a	-327.66
	84	0.017	-5.07831E-001	-2.71293E-008	0.00000E+000	-5.08150E-001	8.00223E-005	4	..........a	-327.66
	87	0.0176	-5.37830E-001	-2.85273E-008	0.00000E+000	-5.38150E-001	8.00223E-005	4	..........a	-327.66
	90	0.0182	-5.67930E-001	-2.99824E-008	0.00000E+000	-5.68150E-001	8.00223E-005	4	..........a	-327.66
	93	0.0188	-5.97830E-001	-3.14524E-008	0.00000E+000	-5.98150E-001	8.00223E-005	4	..........a	-327.66
	96	0.0194	-5.67831E-001	-3.18834E-008	0.00000E+000	-5.68150E-001	8.00223E-005	4	..........a	-327.66
	99	0.02	-5.37930E-001	-3.19434E-008	0.00000E+000	-5.38150E-001	8.00223E-005	4	..........a	-327.66
	102	0.0206	-5.07931E-001	-3.18244E-008	0.00000E+000	-5.08150E-001	-3.19978E-004	4	..........a	-327.66
	105	0.0212	-4.78030E-001	-3.15814E-008	0.00000E+000	-4.78150E-001	-2.19978E-004	4	..........a	-327.66
	108	0.0218	-4.47830E-001	-3.12444E-008	0.00000E+000	-4.48150E-001	8.00223E-005	4	..........a	-327.66
	111	0.0224	-4.18030E-001	-3.08274E-008	0.00000E+000	-4.18150E-001	8.00223E-005	4	..........a	-327.66
	114	0.023	-3.87730E-001	-3.03384E-008	0.00000E+000	-3.88150E-001	8.00223E-005	4	..........a	-327.66
	117	0.0236	-3.57930E-001	-2.97954E-008	0.00000E+000	-3.58150E-001	8.00223E-005	4	..........a	-327.66
	120	0.0242	-3.27830E-001	-2.92043E-008	0.00000E+000	-3.28150E-001	-2.19978E-004	4	..........a	-327.66
	123	0.0248	-2.97930E-001	-2.85773E-008	0.00000E+000	-2.98150E-001	8.00223E-005	4	..........a	-327.66
	126	0.0254	-2.67780E-001	-2.79233E-008	0.00000E+000	-2.68150E-001	8.00223E-005	4	..........a	-327.66
	129	0.026	-2.37930E-001	-2.72353E-008	0.00000E+000	-2.38150E-001	8.00223E-005	4	..........a	-327.66
	132	0.0266	-2.07930E-001	-2.65312E-008	0.00000E+000	-2.08150E-001	8.00223E-005	4	..........a	-327.66
	135	0.0272	-1.77930E-001	-2.58092E-008	0.00000E+000	-1.78150E-001	8.00223E-005	4	..........a	-327.66
	138	0.0278	-1.47930E-001	-2.50792E-008	0.00000E+000	-1.48150E-001	8.00223E-005	4	..........a	-327.66
	141	0.0284	-1.18130E-001	-2.43351E-008	0.00000E+000	-1.18150E-001	8.00223E-005	4	..........a	-327.66
	144	0.029	-8.80305E-002	-2.35701E-008	0.00000E+000	-8.81500E-002	8.00223E-005	4	..........a	-327.66
	147	0.0296	-5.80305E-002	-2.27871E-008	0.00000E+000	-5.81500E-002	8.00223E-005	4	..........a	-327.66
	150	0.0302	-2.80305E-002	-2.19801E-008	0.00000E+000	-2.81500E-002	8.00223E-005	4	..........a	-327.66
	153	0.0308	2.06952E-003	-2.11490E-008	0.00000E+000	1.85000E-003	8.00223E-005	4	..........a	-327.66
	156	0.0314	3.19695E-002	-2.02750E-008	0.00000E+000	3.18500E-002	-2.19978E-004	4	..........a	-327.66
	159	0.032	6.20695E-002	-1.93440E-008	0.00000E+000	6.18500E-002	8.00223E-005	4	..........a	-327.66
	162	0.0326	9.16695E-002	-1.83439E-008	0.00000E+000	9.18500E-002	8.00223E-005	4	..........a	-327.66
	165	0.0332	1.21970E-001	-1.72579E-008	0.00000E+000	1.21850E-001	8.00223E-005	4	..........a	-327.66
	168	0.0338	1.51970E-001	-1.60688E-008	0.00000E+000	1.51850E-001	8.00223E-005	4	..........a	-327.66
	171	0.0344	1.81970E-001	-1.47678E-008	0.00000E+000	1.81850E-001	8.00223E-005	4	..........a	-327.66
	174	0.035	2.11670E-001	-1.33457E-008	0.00000E+000	2.11850E-001	8.00223E-005	4	..........a	-327.66
	177	0.0356	2.41970E-001	-1.17757E-008	0.00000E+000	2.41850E-001	8.00223E-005	4	..........a	-327.66
	180	0.0362	2.71770E-001	-1.00366E-008	0.00000E+000	2.71850E-001	8.00223E-005	4	..........a	-327.66
	183	0.0368	3.01870E-001	-8.12252E-009	0.00000E+000	3.01850E-001	8.00223E-005	4	..........a	-327.66
	186	0.0374	3.31670E-001	-6.07445E-009	0.00000E+000	3.31850E-001	8.00223E-005	4	..........a	-327.66
	189	0.038	3.61770E-001	-3.98037E-009	0.00000E+000	3.61850E-001	8.00223E-005	4	..........a	-327.66
	192	0.0386	3.91970E-001	-1.98329E-009	0.00000E+000	3.91850E-001	8.00223E-005	4	..........a	-327.66
	195	0.0392	4.21670E-001	-1.59218E-010	0.00000E+000	4.21850E-001	8.00223E-005	4	..........a	-327.66
	198	0.0398	4.51970E-001	1.50185E-009	0.00000E+000	4.51850E-001	8.00223E-005	4	..........a	-327.66
	201	0.0404	4.81770E-001	3.02390E-009	0.00000E+000	4.81850E-001	8.00223E-005	4	..........a	-327.66
	204	0.041	5.11669E-001	4.44796E-009	0.00000E+000	5.11850E-001	-3.19978E-004	4	..........a	-327.66
	207	0.0416	5.41869E-001	5.80201E-009	0.00000E+000	5.41850E-001	8.00223E-005	4	..........a	-327.66
	210	0.0422	5.71769E-001	7.11606E-009	0.00000E+000	5.71850E-001	8.00223E-005	4	..........a	-327.66
	213	0.0428	6.01869E-001	8.39411E-009	0.00000E+000	6.01850E-001	8.00223E-005	4	..........a	-327.66
	216	0.0434	6.31669E-001	9.63516E-009	0.00000E+000	6.31850E-001	8.00223E-005	4	..........a	-327.66
	219	0.044	6.61869E-001	1.08342E-008	0.00000E+000	6.61850E-001	-2.19978E-004	4	..........a	-327.66
	222	0.0446	6.91669E-001	1.19802E-008	0.00000E+000	6.91850E-001	8.00223E-005	4	..........a	-327.66
	225	0.0452	7.21769E-001	1.30773E-008	0.00000E+000	7.21850E-001	8.00223E-005	4	..........a	-327.66
	228	0.0458	7.51669E-001	1.41053E-008	0.00000E+000	7.51850E-001	8.00223E-005	4	..........a	-327.66
	231	0.0464	7.81769E-001	1.50974E-008	0.00000E+000	7.81850E-001	8.00223E-005	4	..........a	-327.66
	233	0.0468	8.01470E-001	1.57324E-008	0.00000E+000	8.01850E-001	8.00223E-005	4	..........a	-327.66
CURVE2	TABLE
	Pt	T	Vf	Im	Vu	Sig	Ach	IERange	Over	Temp
	#	s	V vs. Ref.	A	V	V	V	#	bits	deg C
	234	0.047	7.89970E-001	1.58324E-008	0.00000E+000	7.90000E-001	-3.19978E-004	4	..........a	-327.66
	237	0.0476	7.59969E-001	1.58504E-008	0.00000E+000	7.60000E-001	8.00223E-005	4	..........a	-327.66
	240	0.0482	7.29669E-001	1.56114E-008	0.00000E+000	7.30000E-001	8.00223E-005	4	..........a	-327.66
	243	0.0488	6.99769E-001	1.52144E-008	0.00000E+000	7.00000E-001	8.00223E-005	4	..........a	-327.66
	246	0.0494	6.69969E-001	1.46824E-008	0.00000E+000	6.70000E-001	8.00223E-005	4	..........a	-327.66
	249	0.05	6.39870E-001	1.40263E-008	0.00000E+000	6.40000E-001	-2.19978E-004	4	..........a	-327.66
	252	0.0506	6.09969E-001	1.32433E-008	0.00000E+000	6.10000E-001	8.00223E-005	4	..........a	-327.66
	255	0.0512	5.79669E-001	1.23263E-008	0.00000E+000	5.80000E-001	8.00223E-005	4	..........a	-327.66
	258	0.0518	5.49969E-001	1.12722E-008	0.00000E+000	5.50000E-001	8.00223E-005	4	..........a	-327.66
	261	0.0524	5.19870E-001	1.00812E-008	0.00000E+000	5.20000E-001	8.00223E-005	4	..........a	-327.66
	264	0.053	4.89970E-001	8.76412E-009	0.00000E+000	4.90000E-001	8.00223E-005	4	..........a	-327.66
	267	0.0536	4.59770E-001	7.33907E-009	0.00000E+000	4.60000E-001	8.00223E-005	4	..........a	-327.66
	270	0.0542	4.30170E-001	5.80501E-009	0.00000E+000	4.30000E-001	8.00223E-005	4	..........a	-327.66
	273	0.0548	3.99870E-001	4.19895E-009	0.00000E+000	4.00000E-001	8.00223E-005	4	..........a	-327.66
	276	0.0554	3.69870E-001	2.56389E-009	0.00000E+000	3.70000E-001	8.00223E-005	4	..........a	-327.66
	279	0.056	3.40170E-001	9.53824E-010	0.00000E+000	3.40000E-001	8.00223E-005	4	..........a	-327.66
	282	0.0566	3.10070E-001	-6.14236E-010	0.00000E+000	3.10000E-001	-3.19978E-004	4	..........a	-327.66
	285	0.0572	2.80070E-001	-2.11129E-009	0.00000E+000	2.80000E-001	8.00223E-005	4	..........a	-327.66
	288	0.0578	2.50070E-001	-3.53235E-009	0.00000E+000	2.50000E-001	8.00223E-005	4	..........a	-327.66
	291	0.0584	2.20270E-001	-4.85840E-009	0.00000E+000	2.20000E-001	8.00223E-005	4	..........a	-327.66
	294	0.059	1.90070E-001	-6.07945E-009	0.00000E+000	1.90000E-001	8.00223E-005	4	..........a	-327.66
	297	0.0596	1.60070E-001	-7.20249E-009	0.00000E+000	1.60000E-001	8.00223E-005	4	..........a	-327.66
	300	0.0602	1.30070E-001	-8.23453E-009	0.00000E+000	1.30000E-001	8.00223E-005	4	..........a	-327.66
	303	0.0608	1.00170E-001	-9.18256E-009	0.00000E+000	1.00000E-001	8.00223E-005	4	..........a	-327.66
	306	0.0614	7.00695E-002	-1.00846E-008	0.00000E+000	7.00000E-002	8.00223E-005	4	..........a	-327.66
	309	0.062	3.96695E-002	-1.09336E-008	0.00000E+000	4.00000E-002	8.00223E-005	4	..........a	-327.66
	312	0.0626	1.00695E-002	-1.17507E-008	0.00000E+000	1.00000E-002	8.00223E-005	4	..........a	-327.66
	315	0.0632	-1.98305E-002	-1.25707E-008	0.00000E+000	-2.00000E-002	8.00223E-005	4	..........a	-327.66
	318	0.0638	-4.99305E-002	-1.34037E-008	0.00000E+000	-5.00000E-002	-3.19978E-004	4	..........a	-327.66
	321	0.0644	-7.99305E-002	-1.42948E-008	0.00000E+000	-8.00000E-002	-1.19978E-004	4	..........a	-327.66
	324	0.065	-1.09930E-001	-1.52208E-008	0.00000E+000	-1.10000E-001	8.00223E-005	4	..........a	-327.66
	327	0.0656	-1.39780E-001	-1.61148E-008	0.00000E+000	-1.40000E-001	8.00223E-005	4	..........a	-327.66
	330	0.0662	-1.69930E-001	-1.69409E-008	0.00000E+000	-1.70000E-001	8.00223E-005	4	..........a	-327.66
	333	0.0668	-1.99930E-001	-1.77049E-008	0.00000E+000	-2.00000E-001	8.00223E-005	4	..........a	-327.66
	336	0.0674	-2.29730E-001	-1.84309E-008	0.00000E+000	-2.30000E-001	8.00223E-005	4	..........a	-327.66
	339	0.068	-2.59730E-001	-1.91489E-008	0.00000E+000	-2.60000E-001	8.00223E-005	4	..........a	-327.66
	342	0.0686	-2.89830E-001	-1.98700E-008	0.00000E+000	-2.90000E-001	8.00223E-005	4	..........a	-327.66
	345	0.0692	-3.19930E-001	-2.06190E-008	0.00000E+000	-3.20000E-001	8.00223E-005	4	..........a	-327.66
	348	0.0698	-3.49930E-001	-2.14080E-008	0.00000E+000	-3.50000E-001	8.00223E-005	4	..........a	-327.66
	351	0.0704	-3.79780E-001	-2.22551E-008	0.00000E+000	-3.80000E-001	8.00223E-005	4	..........a	-327.66
[...]
	1522	0.3046	-3.09630E-001	-2.38451E-008	0.00000E+000	-3.10000E-001	8.00223E-005	4	..........a	-327.66
	1525	0.3052	-2.79830E-001	-2.32121E-008	0.00000E+000	-2.80000E-001	8.00223E-005	4	..........a	-327.66
	1528	0.3058	-2.49930E-001	-2.25491E-008	0.00000E+000	-2.50000E-001	8.00223E-005	4	..........a	-327.66
	1531	0.3064	-2.19930E-001	-2.18561E-008	0.00000E+000	-2.20000E-001	8.00223E-005	4	..........a	-327.66
	1534	0.307	-1.89930E-001	-2.11500E-008	0.00000E+000	-1.90000E-001	-5.19978E-004	4	..........a	-327.66
	1537	0.3076	-1.59830E-001	-2.04350E-008	0.00000E+000	-1.60000E-001	8.00223E-005	4	..........a	-327.66
	1540	0.3082	-1.29930E-001	-1.97110E-008	0.00000E+000	-1.30000E-001	8.00223E-005	4	..........a	-327.66
	1543	0.3088	-9.98305E-002	-1.89709E-008	0.00000E+000	-1.00000E-001	8.00223E-005	4	..........a	-327.66
	1546	0.3094	-6.99305E-002	-1.82169E-008	0.00000E+000	-7.00000E-002	8.00223E-005	4	..........a	-327.66
	1549	0.31	-3.98305E-002	-1.74389E-008	0.00000E+000	-4.00000E-002	8.00223E-005	4	..........a	-327.66
	1552	0.3106	-9.93048E-003	-1.66409E-008	0.00000E+000	-1.00000E-002	8.00223E-005	4	..........a	-327.66
	1555	0.3112	2.00695E-002	-1.58048E-008	0.00000E+000	2.00000E-002	8.00223E-005	4	..........a	-327.66
	1558	0.3118	5.00695E-002	-1.49248E-008	0.00000E+000	5.00000E-002	8.00223E-005	4	..........a	-327.66
	1561	0.3124	8.00195E-002	-1.39797E-008	0.00000E+000	8.00000E-002	8.00223E-005	4	..........a	-327.66
	1564	0.313	1.10170E-001	-1.29577E-008	0.00000E+000	1.10000E-001	8.00223E-005	4	..........a	-327.66
	1567	0.3136	1.40170E-001	-1.18307E-008	0.00000E+000	1.40000E-001	8.00223E-005	4	..........a	-327.66
	1570	0.3142	1.70070E-001	-1.05906E-008	0.00000E+000	1.70000E-001	8.00223E-005	4	..........a	-327.66
	1573	0.3148	2.00070E-001	-9.21757E-009	0.00000E+000	2.00000E-001	8.00223E-005	4	..........a	-327.66
	1576	0.3154	2.29970E-001	-7.69751E-009	0.00000E+000	2.30000E-001	8.00223E-005	4	..........a	-327.66
	1579	0.316	2.60170E-001	-5.99644E-009	0.00000E+000	2.60000E-001	8.00223E-005	4	..........a	-327.66
	1582	0.3166	2.89970E-001	-4.11437E-009	0.00000E+000	2.90000E-001	8.00223E-005	4	..........a	-327.66
	1585	0.3172	3.19970E-001	-2.03429E-009	0.00000E+000	3.20000E-001	-3.19978E-004	4	..........a	-327.66
	1588	0.3178	3.49770E-001	1.27793E-010	0.00000E+000	3.50000E-001	8.00223E-005	4	..........a	-327.66
	1591	0.3184	3.80070E-001	2.20787E-009	0.00000E+000	3.80000E-001	8.00223E-005	4	..........a	-327.66
	1594	0.319	4.09970E-001	4.12595E-009	0.00000E+000	4.10000E-001	8.00223E-005	4	..........a	-327.66
	1597	0.3196	4.39870E-001	5.86901E-009	0.00000E+000	4.40000E-001	8.00223E-005	4	..........a	-327.66
	1600	0.3202	4.69770E-001	7.46407E-009	0.00000E+000	4.70000E-001	8.00223E-005	4	..........a	-327.66
	1603	0.3208	5.00069E-001	8.95513E-009	0.00000E+000	5.00000E-001	8.00223E-005	4	..........a	-327.66
	1606	0.3214	5.29970E-001	1.03492E-008	0.00000E+000	5.30000E-001	8.00223E-005	4	..........a	-327.66
	1609	0.322	5.60070E-001	1.16862E-008	0.00000E+000	5.60000E-001	8.00223E-005	4	..........a	-327.66
	1612	0.3226	5.89869E-001	1.29883E-008	0.00000E+000	5.90000E-001	8.00223E-005	4	..........a	-327.66
	1615	0.3232	6.19769E-001	1.42393E-008	0.00000E+000	6.20000E-001	8.00223E-005	4	..........a	-327.66
	1618	0.3238	6.49769E-001	1.54444E-008	0.00000E+000	6.50000E-001	-4.19978E-004	4	..........a	-327.66
	1621	0.3244	6.79869E-001	1.65984E-008	0.00000E+000	6.80000E-001	8.00223E-005	4	..........a	-327.66
	1624	0.325	7.09870E-001	1.76865E-008	0.00000E+000	7.10000E-001	-2.19978E-004	4	..........a	-327.66
	1627	0.3256	7.39869E-001	1.87075E-008	0.00000E+000	7.40000E-001	8.00223E-005	4	..........a	-327.66
	1630	0.3262	7.69870E-001	1.96785E-008	0.00000E+000	7.70000E-001	8.00223E-005	4	..........a	-327.66
	1633	0.3268	7.99969E-001	2.06096E-008	0.00000E+000	8.00000E-001	8.00223E-005	4	..........a	-327.66
CURVE7	TABLE
	Pt	T	Vf	Im	Vu	Sig	Ach	IERange	Over	Temp
	#	s	V vs. Ref.	A	V	V	V	#	bits	deg C
	1634	0.327	7.89869E-001	2.07026E-008	0.00000E+000	7.90000E-001	8.00223E-005	4	..........a	-327.66
	1635	0.3272	7.79869E-001	2.07266E-008	0.00000E+000	7.80000E-001	8.00223E-005	4	..........a	-327.66
	1636	0.3274	7.69870E-001	2.07066E-008	0.00000E+000	7.70000E-001	8.00223E-005	4	..........a	-327.66
	1637	0.3276	7.59669E-001	2.06576E-008	0.00000E+000	7.60000E-001	8.00223E-005	4	..........a	-327.66
	1638	0.3278	7.49669E-001	2.05726E-008	0.00000E+000	7.50000E-001	-3.19978E-004	4	..........a	-327.66
	1639	0.328	7.39769E-001	2.04666E-008	0.00000E+000	7.40000E-001	8.00223E-005	4	..........a	-327.66
	1640	0.3282	7.29769E-001	2.03376E-008	0.00000E+000	7.30000E-001	8.00223E-005	4	..........a	-327.66
	1641	0.3284	7.19769E-001	2.01906E-008	0.00000E+000	7.20000E-001	8.00223E-005	4	..........a	-327.66
	1642	0.3286	7.09870E-001	2.00286E-008	0.00000E+000	7.10000E-001	8.00223E-005	4	..........a	-327.66
	1643	0.3288	6.99969E-001	1.98546E-008	0.00000E+000	7.00000E-001	8.00223E-005	4	..........a	-327.66
	1644	0.329	6.89869E-001	1.96545E-008	0.00000E+000	6.90000E-001	8.00223E-005	4	..........a	-327.66
	1645	0.3292	6.79869E-001	1.94475E-008	0.00000E+000	6.80000E-001	8.00223E-005	4	..........a	-327.66
	1646	0.3294	6.69869E-001	1.92205E-008	0.00000E+000	6.70000E-001	8.00223E-005	4	..........a	-327.66
	1647	0.3296	6.59970E-001	1.89805E-008	0.00000E+000	6.60000E-001	8.00223E-005	4	..........a	-327.66
	1648	0.3298	6.49870E-001	1.87255E-008	0.00000E+000	6.50000E-001	8.00223E-005	4	..........a	-327.66
	1649	0.33	6.39919E-001	1.84515E-008	0.00000E+000	6.40000E-001	8.00223E-005	4	..........a	-327.66
	1650	0.3302	6.29869E-001	1.81625E-008	0.00000E+000	6.30000E-001	8.00223E-005	4	..........a	-327.66
	1651	0.3304	6.19869E-001	1.78645E-008	0.00000E+000	6.20000E-001	8.00223E-005	4	..........a	-327.66
	1652	0.3306	6.09769E-001	1.75485E-008	0.00000E+000	6.10000E-001	8.00223E-005	4	..........a	-327.66
	1653	0.3308	5.99869E-001	1.72134E-008	0.00000E+000	6.00000E-001	8.00223E-005	4	..........a	-327.66
	1654	0.331	5.89969E-001	1.68624E-008	0.00000E+000	5.90000E-001	8.00223E-005	4	..........a	-327.66
	1655	0.3312	5.79919E-001	1.65024E-008	0.00000E+000	5.80000E-001	-3.19978E-004	4	..........a	-327.66
	1656	0.3314	5.69669E-001	1.61184E-008	0.00000E+000	5.70000E-001	8.00223E-005	4	..........a	-327.66
	1657	0.3316	5.59869E-001	1.57204E-008	0.00000E+000	5.60000E-001	8.00223E-005	4	..........a	-327.66
	1658	0.3318	5.49869E-001	1.53104E-008	0.00000E+000	5.50000E-001	8.00223E-005	4	..........a	-327.66
	1659	0.332	5.39670E-001	1.48804E-008	0.00000E+000	5.40000E-001	8.00223E-005	4	..........a	-327.66
	1660	0.3322	5.30069E-001	1.44383E-008	0.00000E+000	5.30000E-001	8.00223E-005	4	..........a	-327.66
	1661	0.3324	5.19669E-001	1.39893E-008	0.00000E+000	5.20000E-001	8.00223E-005	4	..........a	-327.66
	1662	0.3326	5.09870E-001	1.35153E-008	0.00000E+000	5.10000E-001	8.00223E-005	4	..........a	-327.66
	1663	0.3328	4.99970E-001	1.30333E-008	0.00000E+000	5.00000E-001	8.00223E-005	4	..........a	-327.66
	1664	0.333	4.89820E-001	1.25413E-008	0.00000E+000	4.90000E-001	8.00223E-005	4	..........a	-327.66
	1665	0.3332	4.79820E-001	1.20382E-008	0.00000E+000	4.80000E-001	8.00223E-005	4	..........a	-327.66
	1666	0.3334	4.69870E-001	1.15212E-008	0.00000E+000	4.70000E-001	-3.19978E-004	4	..........a	-327.66
	1667	0.3336	4.60020E-001	1.10002E-008	0.00000E+000	4.60000E-001	8.00223E-005	4	..........a	-327.66
	1668	0.3338	4.49870E-001	1.04632E-008	0.00000E+000	4.50000E-001	8.00223E-005	4	..........a	-327.66
	1669	0.334	4.39970E-001	9.92017E-009	0.00000E+000	4.40000E-001	8.00223E-005	4	..........a	-327.66
	1670	0.3342	4.29870E-001	9.37015E-009	0.00000E+000	4.30000E-001	8.00223E-005	4	..........a	-327.66
	1671	0.3344	4.19970E-001	8.80913E-009	0.00000E+000	4.20000E-001	8.00223E-005	4	..........a	-327.66
	1672	0.3346	4.10070E-001	8.23710E-009	0.00000E+000	4.10000E-001	-2.19978E-004	4	..........a	-327.66
	1673	0.3348	3.99770E-001	7.66408E-009	0.00000E+000	4.00000E-001	8.00223E-005	4	..........a	-327.66
	1674	0.335	3.89870E-001	7.09406E-009	0.00000E+000	3.90000E-001	8.00223E-005	4	..........a	-327.66
	1675	0.3352	3.80070E-001	6.51904E-009	0.00000E+000	3.80000E-001	8.00223E-005	4	..........a	-327.66
	1676	0.3354	3.69970E-001	5.94702E-009	0.00000E+000	3.70000E-001	8.00223E-005	4	..........a	-327.66
	1677	0.3356	3.59970E-001	5.37499E-009	0.00000E+000	3.60000E-001	8.00223E-005	4	..........a	-327.66
	1678	0.3358	3.50070E-001	4.80997E-009	0.00000E+000	3.50000E-001	8.00223E-005	4	..........a	-327.66
	1679	0.336	3.40070E-001	4.24995E-009	0.00000E+000	3.40000E-001	-4.19978E-004	4	..........a	-327.66
	1680	0.3362	3.30070E-001	3.68993E-009	0.00000E+000	3.30000E-001	8.00223E-005	4	..........a	-327.66