File: example_project/raw_outputs/20240321_X_GM0016_HL03_E06_CV50k.DTA
EXPLAIN
TAG	CV
TITLE	LABEL	Cyclic Voltammetry	Test &Identifier
DATE	LABEL	3/21/2024	Date
TIME	LABEL	17:50:26	Time
NOTES	NOTES	1	&Notes...

PSTAT	PSTAT	REF600P-43058	Potentiostat
VINIT	POTEN	0.00000E+000	T	Initial &E (V)
VLIMIT1	POTEN	-6.00000E-001	F	Scan Limit &1 (V)
VLIMIT2	POTEN	8.00000E-001	F	Scan Limit &2 (V)
VFINAL	POTEN	0.00000E+000	T	Final &E (V)
SCANRATE	QUANT	4.99999E+004	&Scan Rate (mV/s)
STEPSIZE	QUANT	1.00000E+001	St&ep Size (mV)
CYCLES	IQUANT	10	C&ycles (#)
IMODE	SELECTOR	1	I/E Range &Mode
IRANGE	QUANT	1.00000E-005	&Max Current (mA)
AREA	QUANT	1.00000E+000	Electrode &Area (cm^2)
ELECTRODETYPE	SELECTOR	0	Electrode Type
STRIPPING	TOGGLE	F	Used for Stripping
POLARITY	TOGGLE	F	Signal Polarity
CONDIT	TWOPARAM	F	1.50000E+001	0.00000E+000	Conditionin&g	Time(s)	E(V)
DELAY	TWOPARAM	T	1.00000E+001	0.00000E+000	Init. De&lay	Time(s)	Stab.(mV/s)
EQDELAY	QUANT	1.00000E+001	Equil. &Time (s)
IRCOMP	SELECTOR	0	IRCom&p
PFCOR	QUANT	5.00000E+001	PF Corr. (ohm)
SAMPLINGMODE	SELECTOR	1	Sampling &Mode
OCVCURVE	TABLE	39
	Pt	T	Vf	Vm	Ach	Over	Temp
	#	s	V vs. Ref.	V	V	bits	deg C
	0	0.258333	4.84231E-001	4.84232E-001	2.42422E-004	..........a	-327.66
	1	0.516667	4.84237E-001	4.84509E-001	2.39422E-004	..........a	-327.66
	2	0.775	4.84270E-001	4.84812E-001	2.42489E-004	..........a	-327.66
	3	1.03333	4.84366E-001	4.85062E-001	2.35022E-004	..........a	-327.66
	4	1.29167	4.84542E-001	4.85421E-001	2.37489E-004	..........a	-327.66
	5	1.55	4.84783E-001	4.85656E-001	2.45422E-004	..........a	-327.66
	6	1.80833	4.85060E-001	4.85855E-001	2.42556E-004	..........a	-327.66
	7	2.06667	4.85342E-001	4.86119E-001	2.33756E-004	..........a	-327.66
	8	2.325	4.85608E-001	4.86409E-001	2.48222E-004	..........a	-327.66
	9	2.58333	4.85863E-001	4.86649E-001	2.26156E-004	..........a	-327.66
	10	2.84167	4.86119E-001	4.87039E-001	2.38022E-004	..........a	-327.66
	11	3.1	4.86388E-001	4.87260E-001	2.38022E-004	..........a	-327.66
	12	3.35833	4.86670E-001	4.87454E-001	2.35489E-004	..........a	-327.66
	13	3.61667	4.86950E-001	4.87722E-001	2.27222E-004	..........a	-327.66
	14	3.875	4.87214E-001	4.87992E-001	2.48822E-004	..........a	-327.66
	15	4.13333	4.87464E-001	4.88242E-001	2.40156E-004	..........a	-327.66
	16	4.39167	4.87715E-001	4.88592E-001	2.34289E-004	..........a	-327.66
	17	4.65	4.87978E-001	4.88847E-001	2.48422E-004	..........a	-327.66
	18	4.90833	4.88252E-001	4.89035E-001	2.34156E-004	..........a	-327.66
	19	5.16667	4.88527E-001	4.89293E-001	2.35756E-004	..........a	-327.66
	20	5.425	4.88790E-001	4.89577E-001	2.49822E-004	..........a	-327.66
	21	5.68333	4.89042E-001	4.89828E-001	2.36422E-004	..........a	-327.66
	22	5.94167	4.89294E-001	4.90147E-001	2.30489E-004	..........a	-327.66
	23	6.2	4.89556E-001	4.90436E-001	2.42489E-004	..........a	-327.66
	24	6.45833	4.89830E-001	4.90614E-001	2.39022E-004	..........a	-327.66
	25	6.71667	4.90104E-001	4.90864E-001	2.47822E-004	..........a	-327.66
	26	6.975	4.90366E-001	4.91126E-001	2.32889E-004	..........a	-327.66
	27	7.23333	4.90616E-001	4.91407E-001	2.40156E-004	..........a	-327.66
	28	7.49167	4.90863E-001	4.91645E-001	2.30556E-004	..........a	-327.66
	29	7.75	4.91117E-001	4.91981E-001	2.38222E-004	..........a	-327.66
	30	8.00833	4.91380E-001	4.92199E-001	2.38022E-004	..........a	-327.66
	31	8.26667	4.91649E-001	4.92407E-001	2.44356E-004	..........a	-327.66
	32	8.525	4.91914E-001	4.92680E-001	2.34022E-004	..........a	-327.66
	33	8.78333	4.92168E-001	4.92959E-001	2.38156E-004	..........a	-327.66
	34	9.04167	4.92417E-001	4.93186E-001	2.44822E-004	..........a	-327.66
	35	9.3	4.92669E-001	4.93531E-001	2.43356E-004	..........a	-327.66
	36	9.5583	4.92930E-001	4.93742E-001	2.41489E-004	..........a	-327.66
	37	9.8167	4.93197E-001	4.93943E-001	2.37489E-004	..........a	-327.66
	38	10.075	4.93459E-001	4.94226E-001	2.34022E-004	..........a	-327.66
EOC	QUANT	0.4934592	Open Circuit (V)
PSTATMODEL	IQUANT	7	Pstat Model
PSTATSECTION	LABEL	REF600P-43058	Pstat Section
PSTATSERIALNO	LABEL	43058	Pstat Serial Number
CTRLMODE	IQUANT	1	Control Mode
ELECTROMETER	IQUANT	0	RE=0 or CS=1
IESTAB	IQUANT	2	I/E Stability
CASPEED	IQUANT	4	Control Amp Speed
CONVENTION	IQUANT	1	Current Convention
ICHRANGE	IQUANT	2	Ich Range
ICHRANGEMODE	TOGGLE	F	Ich Auto Range
ICHOFFSETENABLE	TOGGLE	F	Ich Offset Enable
ICHOFFSET	QUANT	0	Ich Offset (V)
ICHFILTER	IQUANT	1	Ich Filter
VCHRANGE	IQUANT	2	Vch Range
VCHRANGEMODE	TOGGLE	F	Vch Auto Range
VCHOFFSETENABLE	TOGGLE	F	Vch Offset Enable
VCHOFFSET	QUANT	0	Vch Offset (V)
VCHFILTER	IQUANT	1	Vch Filter
ACHRANGE	IQUANT	2	Ach Range
ACHOFFSETENABLE	TOGGLE	F	Ach Offset Enable
ACHOFFSET	QUANT	0	Ach Offset (V)
ACHFILTER	IQUANT	1	Ach Filter
IERANGELOWERLIMIT	IQUANT	1	I/E Range Lower Limit
IERANGEMODE	TOGGLE	F	I/E AutoRange
IERANGE	IQUANT	4	I/E Range
POSFEEDENABLE	TOGGLE	F	Positive Feedback IR Comp
POSFEEDRESISTANCE	QUANT	0	Positive Feedback Resistance (ohm)
ACHSELECT	IQUANT	4	Ach Select
SENSECABLEID	IQUANT	7	Sense Cable ID
PWRCABLEID	IQUANT	7	Power Cable ID
DCCALDATE	LABEL	12/18/2023	DC Calibration Date
ACCALDATE	LABEL	12/18/2023	AC Calibration Date
THERMOSELECT	IQUANT	1	Thermo Select
FRAMEWORKVERSION	LABEL	7.8.4	Framework Version
INSTRUMENTVERSION	LABEL	4.42	Instrument Version
CURVE1	TABLE
	Pt	T	Vf	Im	Vu	Sig	Ach	IERange	Over	Temp
	#	s	V vs. Ref.	A	V	V	V	#	bits	deg C
	0	0.0002	4.93370E-001	1.87884E-011	0.00000E+000	4.93450E-001	8.00223E-005	4	..........a	-327.66
	3	0.0008	4.63470E-001	-1.15217E-010	0.00000E+000	4.63450E-001	8.00223E-005	4	..........a	-327.66
	6	0.0014	4.33370E-001	-2.66223E-010	0.00000E+000	4.33450E-001	8.00223E-005	4	..........a	-327.66
	9	0.002	4.03470E-001	-4.45229E-010	0.00000E+000	4.03450E-001	8.00223E-005	4	..........a	-327.66
	12	0.0026	3.73270E-001	-6.34237E-010	0.00000E+000	3.73450E-001	8.00223E-005	4	..........a	-327.66
	15	0.0032	3.43470E-001	-8.54245E-010	0.00000E+000	3.43450E-001	8.00223E-005	4	..........a	-327.66
	18	0.0038	3.13470E-001	-1.09425E-009	0.00000E+000	3.13450E-001	8.00223E-005	4	..........a	-327.66
	21	0.0044	2.83470E-001	-1.38027E-009	0.00000E+000	2.83450E-001	8.00223E-005	4	..........a	-327.66
	24	0.005	2.53670E-001	-1.70228E-009	0.00000E+000	2.53450E-001	8.00223E-005	4	..........a	-327.66
	27	0.0056	2.23470E-001	-2.07629E-009	0.00000E+000	2.23450E-001	8.00223E-005	4	..........a	-327.66
	30	0.0062	1.93470E-001	-2.50631E-009	0.00000E+000	1.93450E-001	8.00223E-005	4	..........a	-327.66
	33	0.0068	1.63470E-001	-2.99633E-009	0.00000E+000	1.63450E-001	8.00223E-005	4	..........a	-327.66
	36	0.0074	1.33670E-001	-3.54835E-009	0.00000E+000	1.33450E-001	8.00223E-005	4	..........a	-327.66
	39	0.008	1.03570E-001	-4.16537E-009	0.00000E+000	1.03450E-001	8.00223E-005	4	..........a	-327.66
	42	0.0086	7.36195E-002	-4.83640E-009	0.00000E+000	7.34500E-002	8.00223E-005	4	..........a	-327.66
	45	0.0092	4.36695E-002	-5.55543E-009	0.00000E+000	4.34500E-002	-3.19978E-004	4	..........a	-327.66
	48	0.0098	1.36695E-002	-6.30445E-009	0.00000E+000	1.34500E-002	8.00223E-005	4	..........a	-327.66
	51	0.0104	-1.65805E-002	-7.08448E-009	0.00000E+000	-1.65500E-002	8.00223E-005	4	..........a	-327.66
	54	0.011	-4.64305E-002	-7.87051E-009	0.00000E+000	-4.65500E-002	8.00223E-005	4	..........a	-327.66
	57	0.0116	-7.63305E-002	-8.66655E-009	0.00000E+000	-7.65500E-002	8.00223E-005	4	..........a	-327.66
	60	0.0122	-1.06430E-001	-9.45458E-009	0.00000E+000	-1.06550E-001	8.00223E-005	4	..........a	-327.66
	63	0.0128	-1.36430E-001	-1.02336E-008	0.00000E+000	-1.36550E-001	8.00223E-005	4	..........a	-327.66
	66	0.0134	-1.66630E-001	-1.10006E-008	0.00000E+000	-1.66550E-001	8.00223E-005	4	..........a	-327.66
	69	0.014	-1.96430E-001	-1.17497E-008	0.00000E+000	-1.96550E-001	8.00223E-005	4	..........a	-327.66
	72	0.0146	-2.26330E-001	-1.24787E-008	0.00000E+000	-2.26550E-001	8.00223E-005	4	..........a	-327.66
	75	0.0152	-2.56230E-001	-1.31847E-008	0.00000E+000	-2.56550E-001	8.00223E-005	4	..........a	-327.66
	78	0.0158	-2.86430E-001	-1.38607E-008	0.00000E+000	-2.86550E-001	8.00223E-005	4	..........a	-327.66
	81	0.0164	-3.16330E-001	-1.45128E-008	0.00000E+000	-3.16550E-001	8.00223E-005	4	..........a	-327.66
	84	0.017	-3.46430E-001	-1.51428E-008	0.00000E+000	-3.46550E-001	8.00223E-005	4	..........a	-327.66
	87	0.0176	-3.76430E-001	-1.57438E-008	0.00000E+000	-3.76550E-001	8.00223E-005	4	..........a	-327.66
	90	0.0182	-4.06330E-001	-1.63278E-008	0.00000E+000	-4.06550E-001	8.00223E-005	4	..........a	-327.66
	93	0.0188	-4.36330E-001	-1.68969E-008	0.00000E+000	-4.36550E-001	8.00223E-005	4	..........a	-327.66
	96	0.0194	-4.66230E-001	-1.74569E-008	0.00000E+000	-4.66550E-001	8.00223E-005	4	..........a	-327.66
	99	0.02	-4.96330E-001	-1.80159E-008	0.00000E+000	-4.96550E-001	8.00223E-005	4	..........a	-327.66
	102	0.0206	-5.26430E-001	-1.85869E-008	0.00000E+000	-5.26550E-001	8.00223E-005	4	..........a	-327.66
	105	0.0212	-5.56430E-001	-1.91609E-008	0.00000E+000	-5.56550E-001	8.00223E-005	4	..........a	-327.66
	108	0.0218	-5.86531E-001	-1.97560E-008	0.00000E+000	-5.86550E-001	8.00223E-005	4	..........a	-327.66
	111	0.0224	-5.76380E-001	-2.00300E-008	0.00000E+000	-5.76550E-001	8.00223E-005	4	..........a	-327.66
	114	0.023	-5.46130E-001	-1.99850E-008	0.00000E+000	-5.46550E-001	8.00223E-005	4	..........a	-327.66
	117	0.0236	-5.16330E-001	-1.98460E-008	0.00000E+000	-5.16550E-001	8.00223E-005	4	..........a	-327.66
	120	0.0242	-4.86530E-001	-1.96530E-008	0.00000E+000	-4.86550E-001	8.00223E-005	4	..........a	-327.66
	123	0.0248	-4.56330E-001	-1.94290E-008	0.00000E+000	-4.56550E-001	8.00223E-005	4	..........a	-327.66
	126	0.0254	-4.26330E-001	-1.91719E-008	0.00000E+000	-4.26550E-001	8.00223E-005	4	..........a	-327.66
	129	0.026	-3.96430E-001	-1.88989E-008	0.00000E+000	-3.96550E-001	8.00223E-005	4	..........a	-327.66
	132	0.0266	-3.66330E-001	-1.86119E-008	0.00000E+000	-3.66550E-001	8.00223E-005	4	..........a	-327.66
	135	0.0272	-3.36430E-001	-1.83079E-008	0.00000E+000	-3.36550E-001	8.00223E-005	4	..........a	-327.66
	138	0.0278	-3.06330E-001	-1.80009E-008	0.00000E+000	-3.06550E-001	8.00223E-005	4	..........a	-327.66
	141	0.0284	-2.76330E-001	-1.76769E-008	0.00000E+000	-2.76550E-001	8.00223E-005	4	..........a	-327.66
	144	0.029	-2.46330E-001	-1.73489E-008	0.00000E+000	-2.46550E-001	8.00223E-005	4	..........a	-327.66
	147	0.0296	-2.16530E-001	-1.70109E-008	0.00000E+000	-2.16550E-001	8.00223E-005	4	..........a	-327.66
	150	0.0302	-1.86530E-001	-1.66749E-008	0.00000E+000	-1.86550E-001	8.00223E-005	4	..........a	-327.66
	153	0.0308	-1.56530E-001	-1.63168E-008	0.00000E+000	-1.56550E-001	8.00223E-005	4	..........a	-327.66
	156	0.0314	-1.26530E-001	-1.59578E-008	0.00000E+000	-1.26550E-001	-2.19978E-004	4	..........a	-327.66
	159	0.032	-9.63305E-002	-1.55948E-008	0.00000E+000	-9.65500E-002	8.00223E-005	4	..........a	-327.66
	162	0.0326	-6.62305E-002	-1.52248E-008	0.00000E+000	-6.65500E-002	8.00223E-005	4	..........a	-327.66
	165	0.0332	-3.63305E-002	-1.48478E-008	0.00000E+000	-3.65500E-002	8.00223E-005	4	..........a	-327.66
	168	0.0338	-6.53048E-003	-1.44588E-008	0.00000E+000	-6.55000E-003	8.00223E-005	4	..........a	-327.66
	171	0.0344	2.34195E-002	-1.40588E-008	0.00000E+000	2.34500E-002	8.00223E-005	4	..........a	-327.66
	174	0.035	5.34695E-002	-1.36527E-008	0.00000E+000	5.34500E-002	8.00223E-005	4	..........a	-327.66
	177	0.0356	8.36695E-002	-1.32247E-008	0.00000E+000	8.34500E-002	-3.19978E-004	4	..........a	-327.66
	180	0.0362	1.13470E-001	-1.27717E-008	0.00000E+000	1.13450E-001	8.00223E-005	4	..........a	-327.66
	183	0.0368	1.43470E-001	-1.23117E-008	0.00000E+000	1.43450E-001	8.00223E-005	4	..........a	-327.66
	186	0.0374	1.73420E-001	-1.18167E-008	0.00000E+000	1.73450E-001	8.00223E-005	4	..........a	-327.66
	189	0.038	2.03370E-001	-1.12926E-008	0.00000E+000	2.03450E-001	8.00223E-005	4	..........a	-327.66
	192	0.0386	2.33370E-001	-1.07326E-008	0.00000E+000	2.33450E-001	8.00223E-005	4	..........a	-327.66
	195	0.0392	2.63470E-001	-1.01406E-008	0.00000E+000	2.63450E-001	8.00223E-005	4	..........a	-327.66
	198	0.0398	2.93470E-001	-9.51258E-009	0.00000E+000	2.93450E-001	8.00223E-005	4	..........a	-327.66
	201	0.0404	3.23470E-001	-8.84255E-009	0.00000E+000	3.23450E-001	8.00223E-005	4	..........a	-327.66
	204	0.041	3.53370E-001	-8.13753E-009	0.00000E+000	3.53450E-001	8.00223E-005	4	..........a	-327.66
	207	0.0416	3.83470E-001	-7.40650E-009	0.00000E+000	3.83450E-001	8.00223E-005	4	..........a	-327.66
	210	0.0422	4.13370E-001	-6.64447E-009	0.00000E+000	4.13450E-001	8.00223E-005	4	..........a	-327.66
	213	0.0428	4.43370E-001	-5.86344E-009	0.00000E+000	4.43450E-001	8.00223E-005	4	..........a	-327.66
	216	0.0434	4.73670E-001	-5.05841E-009	0.00000E+000	4.73450E-001	8.00223E-005	4	..........a	-327.66
	219	0.044	5.03469E-001	-4.22537E-009	0.00000E+000	5.03450E-001	8.00223E-005	4	..........a	-327.66
	222	0.0446	5.33369E-001	-3.37734E-009	0.00000E+000	5.33450E-001	8.00223E-005	4	..........a	-327.66
	225	0.0452	5.63469E-001	-2.51531E-009	0.00000E+000	5.63450E-001	8.00223E-005	4	..........a	-327.66
	228	0.0458	5.93369E-001	-1.64428E-009	0.00000E+000	5.93450E-001	8.00223E-005	4	..........a	-327.66
	231	0.0464	6.23369E-001	-7.63242E-010	0.00000E+000	6.23450E-001	8.00223E-005	4	..........a	-327.66
	234	0.047	6.53169E-001	1.31793E-010	0.00000E+000	6.53450E-001	8.00223E-005	4	..........a	-327.66
	237	0.0476	6.83270E-001	1.02883E-009	0.00000E+000	6.83450E-001	-3.19978E-004	4	..........a	-327.66
	240	0.0482	7.13269E-001	1.93786E-009	0.00000E+000	7.13450E-001	8.00223E-005	4	..........a	-327.66
	243	0.0488	7.43419E-001	2.86690E-009	0.00000E+000	7.43450E-001	8.00223E-005	4	..........a	-327.66
	246	0.0494	7.73369E-001	3.79993E-009	0.00000E+000	7.73450E-001	-3.19978E-004	4	..........a	-327.66
	249	0.05	8.03469E-001	4.77497E-009	0.00000E+000	8.03450E-001	8.00223E-005	4	..........a	-327.66
CURVE2	TABLE
	Pt	T	Vf	Im	Vu	Sig	Ach	IERange	Over	Temp
	#	s	V vs. Ref.	A	V	V	V	#	bits	deg C
	250	0.0502	7.89869E-001	4.91298E-009	0.00000E+000	7.90000E-001	8.00223E-005	4	..........a	-327.66
	253	0.0508	7.60069E-001	5.13998E-009	0.00000E+000	7.60000E-001	8.00223E-005	4	..........a	-327.66
	256	0.0514	7.29869E-001	5.17399E-009	0.00000E+000	7.30000E-001	8.00223E-005	4	..........a	-327.66
	259	0.052	6.99869E-001	5.09798E-009	0.00000E+000	7.00000E-001	8.00223E-005	4	..........a	-327.66
	262	0.0526	6.69869E-001	4.94898E-009	0.00000E+000	6.70000E-001	8.00223E-005	4	..........a	-327.66
	265	0.0532	6.39719E-001	4.75597E-009	0.00000E+000	6.40000E-001	8.00223E-005	4	..........a	-327.66
	268	0.0538	6.09869E-001	4.52996E-009	0.00000E+000	6.10000E-001	8.00223E-005	4	..........a	-327.66
	271	0.0544	5.80269E-001	4.26995E-009	0.00000E+000	5.80000E-001	8.00223E-005	4	..........a	-327.66
	274	0.055	5.49869E-001	3.98194E-009	0.00000E+000	5.50000E-001	8.00223E-005	4	..........a	-327.66
	277	0.0556	5.20069E-001	3.66193E-009	0.00000E+000	5.20000E-001	8.00223E-005	4	..........a	-327.66
	280	0.0562	4.89870E-001	3.32392E-009	0.00000E+000	4.90000E-001	8.00223E-005	4	..........a	-327.66
	283	0.0568	4.60070E-001	2.95290E-009	0.00000E+000	4.60000E-001	8.00223E-005	4	..........a	-327.66
	286	0.0574	4.30070E-001	2.54389E-009	0.00000E+000	4.30000E-001	8.00223E-005	4	..........a	-327.66
	289	0.058	4.00170E-001	2.10087E-009	0.00000E+000	4.00000E-001	8.00223E-005	4	..........a	-327.66
	292	0.0586	3.70070E-001	1.60585E-009	0.00000E+000	3.70000E-001	8.00223E-005	4	..........a	-327.66
	295	0.0592	3.40070E-001	1.07183E-009	0.00000E+000	3.40000E-001	8.00223E-005	4	..........a	-327.66
	298	0.0598	3.10070E-001	4.85806E-010	0.00000E+000	3.10000E-001	8.00223E-005	4	..........a	-327.66
	301	0.0604	2.79870E-001	-1.47218E-010	0.00000E+000	2.80000E-001	8.00223E-005	4	..........a	-327.66
	304	0.061	2.50070E-001	-8.30244E-010	0.00000E+000	2.50000E-001	8.00223E-005	4	..........a	-327.66
	307	0.0616	2.19670E-001	-1.54527E-009	0.00000E+000	2.20000E-001	8.00223E-005	4	..........a	-327.66
	310	0.0622	1.90070E-001	-2.30130E-009	0.00000E+000	1.90000E-001	8.00223E-005	4	..........a	-327.66
	313	0.0628	1.59870E-001	-3.06633E-009	0.00000E+000	1.60000E-001	8.00223E-005	4	..........a	-327.66
	316	0.0634	1.30020E-001	-3.82736E-009	0.00000E+000	1.30000E-001	8.00223E-005	4	..........a	-327.66
	319	0.064	1.00170E-001	-4.57539E-009	0.00000E+000	1.00000E-001	8.00223E-005	4	..........a	-327.66
	322	0.0646	7.02695E-002	-5.29742E-009	0.00000E+000	7.00000E-002	8.00223E-005	4	..........a	-327.66
	325	0.0652	3.98695E-002	-5.97444E-009	0.00000E+000	4.00000E-002	8.00223E-005	4	..........a	-327.66
	328	0.0658	1.00695E-002	-6.61647E-009	0.00000E+000	1.00000E-002	8.00223E-005	4	..........a	-327.66
	331	0.0664	-1.98305E-002	-7.22649E-009	0.00000E+000	-2.00000E-002	8.00223E-005	4	..........a	-327.66
	334	0.067	-5.00305E-002	-7.79451E-009	0.00000E+000	-5.00000E-002	8.00223E-005	4	..........a	-327.66
	337	0.0676	-7.99305E-002	-8.33353E-009	0.00000E+000	-8.00000E-002	8.00223E-005	4	..........a	-327.66
	340	0.0682	-1.09930E-001	-8.84855E-009	0.00000E+000	-1.10000E-001	8.00223E-005	4	..........a	-327.66
	343	0.0688	-1.39930E-001	-9.33857E-009	0.00000E+000	-1.40000E-001	8.00223E-005	4	..........a	-327.66
	346	0.0694	-1.69980E-001	-9.80759E-009	0.00000E+000	-1.70000E-001	8.00223E-005	4	..........a	-327.66
	349	0.07	-1.99830E-001	-1.02586E-008	0.00000E+000	-2.00000E-001	8.00223E-005	4	..........a	-327.66
	352	0.0706	-2.29930E-001	-1.06966E-008	0.00000E+000	-2.30000E-001	8.00223E-005	4	..........a	-327.66
[...]
	2613	0.5228	-4.39830E-001	-8.02652E-009	0.00000E+000	-4.40000E-001	8.00223E-005	4	..........a	-327.66
	2616	0.5234	-4.69730E-001	-8.43454E-009	0.00000E+000	-4.70000E-001	8.00223E-005	4	..........a	-327.66
	2619	0.524	-4.99930E-001	-8.84455E-009	0.00000E+000	-5.00000E-001	-3.19978E-004	4	..........a	-327.66
	2622	0.5246	-5.29930E-001	-9.27157E-009	0.00000E+000	-5.30000E-001	8.00223E-005	4	..........a	-327.66
	2625	0.5252	-5.59931E-001	-9.72259E-009	0.00000E+000	-5.60000E-001	8.00223E-005	4	..........a	-327.66
	2628	0.5258	-5.89930E-001	-1.02006E-008	0.00000E+000	-5.90000E-001	-3.19978E-004	4	..........a	-327.66
	2631	0.5264	-5.80031E-001	-1.03976E-008	0.00000E+000	-5.80000E-001	8.00223E-005	4	..........a	-327.66
	2634	0.527	-5.49931E-001	-1.03346E-008	0.00000E+000	-5.50000E-001	8.00223E-005	4	..........a	-327.66
	2637	0.5276	-5.19930E-001	-1.02066E-008	0.00000E+000	-5.20000E-001	8.00223E-005	4	..........a	-327.66
	2640	0.5282	-4.89930E-001	-1.00426E-008	0.00000E+000	-4.90000E-001	8.00223E-005	4	..........a	-327.66
	2643	0.5288	-4.59730E-001	-9.84259E-009	0.00000E+000	-4.60000E-001	8.00223E-005	4	..........a	-327.66
	2646	0.5294	-4.29930E-001	-9.63458E-009	0.00000E+000	-4.30000E-001	8.00223E-005	4	..........a	-327.66
	2649	0.53	-3.99930E-001	-9.40857E-009	0.00000E+000	-4.00000E-001	8.00223E-005	4	..........a	-327.66
	2652	0.5306	-3.69930E-001	-9.16756E-009	0.00000E+000	-3.70000E-001	8.00223E-005	4	..........a	-327.66
	2655	0.5312	-3.39730E-001	-8.91855E-009	0.00000E+000	-3.40000E-001	8.00223E-005	4	..........a	-327.66
	2658	0.5318	-3.09930E-001	-8.66255E-009	0.00000E+000	-3.10000E-001	8.00223E-005	4	..........a	-327.66
	2661	0.5324	-2.79930E-001	-8.40254E-009	0.00000E+000	-2.80000E-001	8.00223E-005	4	..........a	-327.66
	2664	0.533	-2.49930E-001	-8.12552E-009	0.00000E+000	-2.50000E-001	8.00223E-005	4	..........a	-327.66
	2667	0.5336	-2.19830E-001	-7.84751E-009	0.00000E+000	-2.20000E-001	8.00223E-005	4	..........a	-327.66
	2670	0.5342	-1.90330E-001	-7.57450E-009	0.00000E+000	-1.90000E-001	8.00223E-005	4	..........a	-327.66
	2673	0.5348	-1.60030E-001	-7.27849E-009	0.00000E+000	-1.60000E-001	8.00223E-005	4	..........a	-327.66
	2676	0.5354	-1.29930E-001	-6.98748E-009	0.00000E+000	-1.30000E-001	8.00223E-005	4	..........a	-327.66
	2679	0.536	-1.00030E-001	-6.69047E-009	0.00000E+000	-1.00000E-001	8.00223E-005	4	..........a	-327.66
	2682	0.5366	-6.99305E-002	-6.38146E-009	0.00000E+000	-7.00000E-002	-3.19978E-004	4	..........a	-327.66
	2685	0.5372	-3.99305E-002	-6.07045E-009	0.00000E+000	-4.00000E-002	8.00223E-005	4	..........a	-327.66
	2688	0.5378	-9.93048E-003	-5.75243E-009	0.00000E+000	-1.00000E-002	8.00223E-005	4	..........a	-327.66
	2691	0.5384	2.02195E-002	-5.42642E-009	0.00000E+000	2.00000E-002	8.00223E-005	4	..........a	-327.66
	2694	0.539	5.00695E-002	-5.07941E-009	0.00000E+000	5.00000E-002	8.00223E-005	4	..........a	-327.66
	2697	0.5396	7.98695E-002	-4.72639E-009	0.00000E+000	8.00000E-002	8.00223E-005	4	..........a	-327.66
	2700	0.5402	1.10070E-001	-4.35338E-009	0.00000E+000	1.10000E-001	8.00223E-005	4	..........a	-327.66
	2703	0.5408	1.40170E-001	-3.94736E-009	0.00000E+000	1.40000E-001	8.00223E-005	4	..........a	-327.66
	2706	0.5414	1.69870E-001	-3.52635E-009	0.00000E+000	1.70000E-001	8.00223E-005	4	..........a	-327.66
	2709	0.542	1.99970E-001	-3.07133E-009	0.00000E+000	2.00000E-001	8.00223E-005	4	..........a	-327.66
	2712	0.5426	2.29970E-001	-2.57531E-009	0.00000E+000	2.30000E-001	8.00223E-005	4	..........a	-327.66
	2715	0.5432	2.60270E-001	-2.04429E-009	0.00000E+000	2.60000E-001	8.00223E-005	4	..........a	-327.66
	2718	0.5438	2.90070E-001	-1.46427E-009	0.00000E+000	2.90000E-001	8.00223E-005	4	..........a	-327.66
	2721	0.5444	3.19970E-001	-8.46245E-010	0.00000E+000	3.20000E-001	8.00223E-005	4	..........a	-327.66
	2724	0.545	3.49870E-001	-1.97220E-010	0.00000E+000	3.50000E-001	8.00223E-005	4	..........a	-327.66
	2727	0.5456	3.80170E-001	4.87806E-010	0.00000E+000	3.80000E-001	8.00223E-005	4	..........a	-327.66
	2730	0.5462	4.09970E-001	1.20583E-009	0.00000E+000	4.10000E-001	8.00223E-005	4	..........a	-327.66
	2733	0.5468	4.39970E-001	1.95486E-009	0.00000E+000	4.40000E-001	8.00223E-005	4	..........a	-327.66
	2736	0.5474	4.70070E-001	2.72489E-009	0.00000E+000	4.70000E-001	8.00223E-005	4	..........a	-327.66
	2739	0.548	5.00269E-001	3.51692E-009	0.00000E+000	5.00000E-001	8.00223E-005	4	..........a	-327.66
	2742	0.5486	5.29869E-001	4.32195E-009	0.00000E+000	5.30000E-001	8.00223E-005	4	..........a	-327.66
	2745	0.5492	5.59969E-001	5.14899E-009	0.00000E+000	5.60000E-001	-1.19978E-004	4	..........a	-327.66
	2748	0.5498	5.89969E-001	5.98002E-009	0.00000E+000	5.90000E-001	8.00223E-005	4	..........a	-327.66
	2751	0.5504	6.19769E-001	6.82005E-009	0.00000E+000	6.20000E-001	8.00223E-005	4	..........a	-327.66
	2754	0.551	6.49870E-001	7.66808E-009	0.00000E+000	6.50000E-001	8.00223E-005	4	..........a	-327.66
	2757	0.5516	6.79969E-001	8.52111E-009	0.00000E+000	6.80000E-001	8.00223E-005	4	..........a	-327.66
	2760	0.5522	7.09870E-001	9.38215E-009	0.00000E+000	7.10000E-001	8.00223E-005	4	..........a	-327.66
	2763	0.5528	7.39869E-001	1.02572E-008	0.00000E+000	7.40000E-001	8.00223E-005	4	..........a	-327.66
	2766	0.5534	7.69769E-001	1.11432E-008	0.00000E+000	7.70000E-001	8.00223E-005	4	..........a	-327.66
	2769	0.554	7.99769E-001	1.20563E-008	0.00000E+000	8.00000E-001	-3.19978E-004	4	..........a	-327.66
CURVE11	TABLE
	Pt	T	Vf	Im	Vu	Sig	Ach	IERange	Over	Temp
	#	s	V vs. Ref.	A	V	V	V	#	bits	deg C
	2770	0.5542	7.90069E-001	1.22103E-008	0.00000E+000	7.90000E-001	8.00223E-005	4	..........a	-327.66
	2771	0.5544	7.79969E-001	1.23093E-008	0.00000E+000	7.80000E-001	8.00223E-005	4	..........a	-327.66
	2772	0.5546	7.69870E-001	1.23693E-008	0.00000E+000	7.70000E-001	8.00223E-005	4	..........a	-327.66
	2773	0.5548	7.59669E-001	1.24023E-008	0.00000E+000	7.60000E-001	8.00223E-005	4	..........a	-327.66
	2774	0.555	7.49969E-001	1.24163E-008	0.00000E+000	7.50000E-001	8.00223E-005	4	..........a	-327.66
	2775	0.5552	7.40070E-001	1.24103E-008	0.00000E+000	7.40000E-001	-3.19978E-004	4	..........a	-327.66
	2776	0.5554	7.29869E-001	1.23913E-008	0.00000E+000	7.30000E-001	8.00223E-005	4	..........a	-327.66
	2777	0.5556	7.19769E-001	1.23553E-008	0.00000E+000	7.20000E-001	8.00223E-005	4	..........a	-327.66
	2778	0.5558	7.09969E-001	1.23103E-008	0.00000E+000	7.10000E-001	8.00223E-005	4	..........a	-327.66
	2779	0.556	6.99769E-001	1.22563E-008	0.00000E+000	7.00000E-001	8.00223E-005	4	..........a	-327.66
	2780	0.5562	6.89770E-001	1.21953E-008	0.00000E+000	6.90000E-001	8.00223E-005	4	..........a	-327.66
	2781	0.5564	6.79969E-001	1.21283E-008	0.00000E+000	6.80000E-001	8.00223E-005	4	..........a	-327.66
	2782	0.5566	6.69969E-001	1.20532E-008	0.00000E+000	6.70000E-001	8.00223E-005	4	..........a	-327.66
	2783	0.5568	6.60069E-001	1.19742E-008	0.00000E+000	6.60000E-001	-3.19978E-004	4	..........a	-327.66
	2784	0.557	6.49669E-001	1.18942E-008	0.00000E+000	6.50000E-001	-3.19978E-004	4	..........a	-327.66
	2785	0.5572	6.39669E-001	1.18082E-008	0.00000E+000	6.40000E-001	-1.19978E-004	4	..........a	-327.66
	2786	0.5574	6.29869E-001	1.17102E-008	0.00000E+000	6.30000E-001	8.00223E-005	4	..........a	-327.66
	2787	0.5576	6.19769E-001	1.16172E-008	0.00000E+000	6.20000E-001	8.00223E-005	4	..........a	-327.66
	2788	0.5578	6.09670E-001	1.15132E-008	0.00000E+000	6.10000E-001	8.00223E-005	4	..........a	-327.66
	2789	0.558	5.99769E-001	1.14062E-008	0.00000E+000	6.00000E-001	8.00223E-005	4	..........a	-327.66
	2790	0.5582	5.89869E-001	1.13042E-008	0.00000E+000	5.90000E-001	8.00223E-005	4	..........a	-327.66
	2791	0.5584	5.79669E-001	1.11902E-008	0.00000E+000	5.80000E-001	8.00223E-005	4	..........a	-327.66
	2792	0.5586	5.69869E-001	1.10772E-008	0.00000E+000	5.70000E-001	8.00223E-005	4	..........a	-327.66
	2793	0.5588	5.59969E-001	1.09612E-008	0.00000E+000	5.60000E-001	8.00223E-005	4	..........a	-327.66
	2794	0.559	5.50070E-001	1.08372E-008	0.00000E+000	5.50000E-001	-3.19978E-004	4	..........a	-327.66
	2795	0.5592	5.39869E-001	1.07102E-008	0.00000E+000	5.40000E-001	8.00223E-005	4	..........a	-327.66
	2796	0.5594	5.29869E-001	1.05862E-008	0.00000E+000	5.30000E-001	8.00223E-005	4	..........a	-327.66
	2797	0.5596	5.20069E-001	1.04522E-008	0.00000E+000	5.20000E-001	8.00223E-005	4	..........a	-327.66
	2798	0.5598	5.09820E-001	1.03132E-008	0.00000E+000	5.10000E-001	-3.19978E-004	4	..........a	-327.66
	2799	0.56	4.99770E-001	1.01732E-008	0.00000E+000	5.00000E-001	8.00223E-005	4	..........a	-327.66
	2800	0.5602	4.89870E-001	1.00342E-008	0.00000E+000	4.90000E-001	8.00223E-005	4	..........a	-327.66