File: example_project/raw_outputs/20240321_ZZL_GM0016_HL03_E16_CV50k.DTA
EXPLAIN
TAG	CV
TITLE	LABEL	Cyclic Voltammetry	Test &Identifier
DATE	LABEL	3/21/2024	Date
TIME	LABEL	20:06:59	Time
NOTES	NOTES	1	&Notes...

PSTAT	PSTAT	REF600P-43058	Potentiostat
VINIT	POTEN	0.00000E+000	T	Initial &E (V)
VLIMIT1	POTEN	-6.00000E-001	F	Scan Limit &1 (V)
VLIMIT2	POTEN	8.00000E-001	F	Scan Limit &2 (V)
VFINAL	POTEN	0.00000E+000	T	Final &E (V)
SCANRATE	QUANT	4.99999E+004	&Scan Rate (mV/s)
STEPSIZE	QUANT	1.00000E+001	St&ep Size (mV)
CYCLES	IQUANT	10	C&ycles (#)
IMODE	SELECTOR	1	I/E Range &Mode
IRANGE	QUANT	1.00000E-005	&Max Current (mA)
AREA	QUANT	1.00000E+000	Electrode &Area (cm^2)
ELECTRODETYPE	SELECTOR	0	Electrode Type
STRIPPING	TOGGLE	F	Used for Stripping
POLARITY	TOGGLE	F	Signal Polarity
CONDIT	TWOPARAM	F	1.50000E+001	0.00000E+000	Conditionin&g	Time(s)	E(V)
DELAY	TWOPARAM	T	1.00000E+001	0.00000E+000	Init. De&lay	Time(s)	Stab.(mV/s)
EQDELAY	QUANT	1.00000E+001	Equil. &Time (s)
IRCOMP	SELECTOR	0	IRCom&p
PFCOR	QUANT	5.00000E+001	PF Corr. (ohm)
SAMPLINGMODE	SELECTOR	1	Sampling &Mode
OCVCURVE	TABLE	39
	Pt	T	Vf	Vm	Ach	Over	Temp
	#	s	V vs. Ref.	V	V	bits	deg C
	0	0.258333	2.97982E-001	2.97982E-001	2.45222E-004	..........a	-327.66
	1	0.516667	2.97990E-001	2.98395E-001	2.68022E-004	..........a	-327.66
	2	0.775	2.98032E-001	2.98436E-001	2.65756E-004	..........a	-327.66
	3	1.03333	2.98131E-001	2.98644E-001	2.48622E-004	..........a	-327.66
	4	1.29167	2.98280E-001	2.98899E-001	2.44489E-004	..........a	-327.66
	5	1.55	2.98461E-001	2.99191E-001	2.54956E-004	..........a	-327.66
	6	1.80833	2.98667E-001	2.99412E-001	2.61222E-004	..........a	-327.66
	7	2.06667	2.98899E-001	2.99664E-001	2.42289E-004	..........a	-327.66
	8	2.325	2.99147E-001	3.00021E-001	2.72689E-004	..........a	-327.66
	9	2.58333	2.99405E-001	3.00124E-001	2.61422E-004	..........a	-327.66
	10	2.84167	2.99663E-001	3.00317E-001	2.57556E-004	..........a	-327.66
	11	3.1	2.99905E-001	3.00614E-001	2.52556E-004	..........a	-327.66
	12	3.35833	3.00130E-001	3.00847E-001	2.65356E-004	..........a	-327.66
	13	3.61667	3.00352E-001	3.01059E-001	2.50022E-004	..........a	-327.66
	14	3.875	3.00585E-001	3.01478E-001	2.61022E-004	..........a	-327.66
	15	4.13333	3.00835E-001	3.01636E-001	2.68289E-004	..........a	-327.66
	16	4.39167	3.01099E-001	3.01799E-001	2.51889E-004	..........a	-327.66
	17	4.65	3.01357E-001	3.01997E-001	2.56222E-004	..........a	-327.66
	18	4.90833	3.01591E-001	3.02284E-001	2.56689E-004	..........a	-327.66
	19	5.16667	3.01807E-001	3.02506E-001	2.66956E-004	..........a	-327.66
	20	5.425	3.02024E-001	3.02712E-001	2.47622E-004	..........a	-327.66
	21	5.68333	3.02252E-001	3.03134E-001	2.58156E-004	..........a	-327.66
	22	5.94167	3.02496E-001	3.03241E-001	2.66622E-004	..........a	-327.66
	23	6.2	3.02751E-001	3.03423E-001	2.51489E-004	..........a	-327.66
	24	6.45833	3.02998E-001	3.03632E-001	2.43489E-004	..........a	-327.66
	25	6.71667	3.03223E-001	3.03917E-001	2.55289E-004	..........a	-327.66
	26	6.975	3.03435E-001	3.04145E-001	2.44556E-004	..........a	-327.66
	27	7.23333	3.03653E-001	3.04348E-001	2.44089E-004	..........a	-327.66
	28	7.49167	3.03884E-001	3.04771E-001	2.57756E-004	..........a	-327.66
	29	7.75	3.04130E-001	3.04833E-001	2.55822E-004	..........a	-327.66
	30	8.00833	3.04382E-001	3.05025E-001	2.54822E-004	..........a	-327.66
	31	8.26667	3.04621E-001	3.05245E-001	2.55622E-004	..........a	-327.66
	32	8.525	3.04837E-001	3.05534E-001	2.56422E-004	..........a	-327.66
	33	8.78333	3.05044E-001	3.05743E-001	2.61822E-004	..........a	-327.66
	34	9.04167	3.05260E-001	3.05911E-001	2.57756E-004	..........a	-327.66
	35	9.3	3.05486E-001	3.06303E-001	2.49489E-004	..........a	-327.66
	36	9.5583	3.05720E-001	3.06452E-001	2.65489E-004	..........a	-327.66
	37	9.8167	3.05961E-001	3.06606E-001	2.52156E-004	..........a	-327.66
	38	10.075	3.06196E-001	3.06782E-001	2.46289E-004	..........a	-327.66
EOC	QUANT	0.3061958	Open Circuit (V)
PSTATMODEL	IQUANT	7	Pstat Model
PSTATSECTION	LABEL	REF600P-43058	Pstat Section
PSTATSERIALNO	LABEL	43058	Pstat Serial Number
CTRLMODE	IQUANT	1	Control Mode
ELECTROMETER	IQUANT	0	RE=0 or CS=1
IESTAB	IQUANT	2	I/E Stability
CASPEED	IQUANT	4	Control Amp Speed
CONVENTION	IQUANT	1	Current Convention
ICHRANGE	IQUANT	2	Ich Range
ICHRANGEMODE	TOGGLE	F	Ich Auto Range
ICHOFFSETENABLE	TOGGLE	F	Ich Offset Enable
ICHOFFSET	QUANT	0	Ich Offset (V)
ICHFILTER	IQUANT	1	Ich Filter
VCHRANGE	IQUANT	2	Vch Range
VCHRANGEMODE	TOGGLE	F	Vch Auto Range
VCHOFFSETENABLE	TOGGLE	F	Vch Offset Enable
VCHOFFSET	QUANT	0	Vch Offset (V)
VCHFILTER	IQUANT	1	Vch Filter
ACHRANGE	IQUANT	2	Ach Range
ACHOFFSETENABLE	TOGGLE	F	Ach Offset Enable
ACHOFFSET	QUANT	0	Ach Offset (V)
ACHFILTER	IQUANT	1	Ach Filter
IERANGELOWERLIMIT	IQUANT	1	I/E Range Lower Limit
IERANGEMODE	TOGGLE	F	I/E AutoRange
IERANGE	IQUANT	4	I/E Range
POSFEEDENABLE	TOGGLE	F	Positive Feedback IR Comp
POSFEEDRESISTANCE	QUANT	0	Positive Feedback Resistance (ohm)
ACHSELECT	IQUANT	4	Ach Select
SENSECABLEID	IQUANT	7	Sense Cable ID
PWRCABLEID	IQUANT	7	Power Cable ID
DCCALDATE	LABEL	12/18/2023	DC Calibration Date
ACCALDATE	LABEL	12/18/2023	AC Calibration Date
THERMOSELECT	IQUANT	1	Thermo Select
FRAMEWORKVERSION	LABEL	7.8.4	Framework Version
INSTRUMENTVERSION	LABEL	4.42	Instrument Version
CURVE1	TABLE
	Pt	T	Vf	Im	Vu	Sig	Ach	IERange	Over	Temp
	#	s	V vs. Ref.	A	V	V	V	#	bits	deg C
	0	0.0002	3.06070E-001	4.07892E-011	0.00000E+000	3.06200E-001	8.00223E-005	4	..........a	-327.66
	3	0.0008	2.76370E-001	-1.05216E-010	0.00000E+000	2.76200E-001	8.00223E-005	4	..........a	-327.66
	6	0.0014	2.46570E-001	-3.10224E-010	0.00000E+000	2.46200E-001	8.00223E-005	4	..........a	-327.66
	9	0.002	2.16270E-001	-5.54234E-010	0.00000E+000	2.16200E-001	8.00223E-005	4	..........a	-327.66
	12	0.0026	1.86270E-001	-8.42245E-010	0.00000E+000	1.86200E-001	8.00223E-005	4	..........a	-327.66
	15	0.0032	1.56270E-001	-1.15726E-009	0.00000E+000	1.56200E-001	8.00223E-005	4	..........a	-327.66
	18	0.0038	1.26070E-001	-1.51127E-009	0.00000E+000	1.26200E-001	8.00223E-005	4	..........a	-327.66
	21	0.0044	9.61695E-002	-1.89529E-009	0.00000E+000	9.62000E-002	8.00223E-005	4	..........a	-327.66
	24	0.005	6.62695E-002	-2.31430E-009	0.00000E+000	6.62000E-002	8.00223E-005	4	..........a	-327.66
	27	0.0056	3.62695E-002	-2.76632E-009	0.00000E+000	3.62000E-002	8.00223E-005	4	..........a	-327.66
	30	0.0062	6.26952E-003	-3.24334E-009	0.00000E+000	6.20000E-003	8.00223E-005	4	..........a	-327.66
	33	0.0068	-2.37305E-002	-3.75536E-009	0.00000E+000	-2.38000E-002	8.00223E-005	4	..........a	-327.66
	36	0.0074	-5.36305E-002	-4.30038E-009	0.00000E+000	-5.38000E-002	8.00223E-005	4	..........a	-327.66
	39	0.008	-8.37305E-002	-4.87440E-009	0.00000E+000	-8.38000E-002	8.00223E-005	4	..........a	-327.66
	42	0.0086	-1.13930E-001	-5.47042E-009	0.00000E+000	-1.13800E-001	8.00223E-005	4	..........a	-327.66
	45	0.0092	-1.43730E-001	-6.10445E-009	0.00000E+000	-1.43800E-001	8.00223E-005	4	..........a	-327.66
	48	0.0098	-1.73630E-001	-6.75747E-009	0.00000E+000	-1.73800E-001	8.00223E-005	4	..........a	-327.66
	51	0.0104	-2.03780E-001	-7.43550E-009	0.00000E+000	-2.03800E-001	8.00223E-005	4	..........a	-327.66
	54	0.011	-2.33730E-001	-8.13853E-009	0.00000E+000	-2.33800E-001	8.00223E-005	4	..........a	-327.66
	57	0.0116	-2.63630E-001	-8.87055E-009	0.00000E+000	-2.63800E-001	8.00223E-005	4	..........a	-327.66
	60	0.0122	-2.93630E-001	-9.61558E-009	0.00000E+000	-2.93800E-001	-2.19978E-004	4	..........a	-327.66
	63	0.0128	-3.23630E-001	-1.03846E-008	0.00000E+000	-3.23800E-001	8.00223E-005	4	..........a	-327.66
	66	0.0134	-3.53830E-001	-1.11766E-008	0.00000E+000	-3.53800E-001	8.00223E-005	4	..........a	-327.66
	69	0.014	-3.83730E-001	-1.19827E-008	0.00000E+000	-3.83800E-001	8.00223E-005	4	..........a	-327.66
	72	0.0146	-4.13630E-001	-1.28127E-008	0.00000E+000	-4.13800E-001	8.00223E-005	4	..........a	-327.66
	75	0.0152	-4.43630E-001	-1.36617E-008	0.00000E+000	-4.43800E-001	8.00223E-005	4	..........a	-327.66
	78	0.0158	-4.73730E-001	-1.45278E-008	0.00000E+000	-4.73800E-001	8.00223E-005	4	..........a	-327.66
	81	0.0164	-5.03630E-001	-1.54218E-008	0.00000E+000	-5.03800E-001	8.00223E-005	4	..........a	-327.66
	84	0.017	-5.33530E-001	-1.63468E-008	0.00000E+000	-5.33800E-001	8.00223E-005	4	..........a	-327.66
	87	0.0176	-5.63531E-001	-1.72979E-008	0.00000E+000	-5.63800E-001	8.00223E-005	4	..........a	-327.66
	90	0.0182	-5.93430E-001	-1.82839E-008	0.00000E+000	-5.93800E-001	8.00223E-005	4	..........a	-327.66
	93	0.0188	-5.83631E-001	-1.89849E-008	0.00000E+000	-5.83800E-001	8.00223E-005	4	..........a	-327.66
	96	0.0194	-5.53630E-001	-1.93160E-008	0.00000E+000	-5.53800E-001	8.00223E-005	4	..........a	-327.66
	99	0.02	-5.23630E-001	-1.94910E-008	0.00000E+000	-5.23800E-001	8.00223E-005	4	..........a	-327.66
	102	0.0206	-4.93730E-001	-1.95570E-008	0.00000E+000	-4.93800E-001	8.00223E-005	4	..........a	-327.66
	105	0.0212	-4.63630E-001	-1.95320E-008	0.00000E+000	-4.63800E-001	8.00223E-005	4	..........a	-327.66
	108	0.0218	-4.33530E-001	-1.94290E-008	0.00000E+000	-4.33800E-001	8.00223E-005	4	..........a	-327.66
	111	0.0224	-4.03530E-001	-1.92600E-008	0.00000E+000	-4.03800E-001	8.00223E-005	4	..........a	-327.66
	114	0.023	-3.73580E-001	-1.90359E-008	0.00000E+000	-3.73800E-001	8.00223E-005	4	..........a	-327.66
	117	0.0236	-3.43730E-001	-1.87629E-008	0.00000E+000	-3.43800E-001	8.00223E-005	4	..........a	-327.66
	120	0.0242	-3.13830E-001	-1.84489E-008	0.00000E+000	-3.13800E-001	8.00223E-005	4	..........a	-327.66
	123	0.0248	-2.83530E-001	-1.80909E-008	0.00000E+000	-2.83800E-001	8.00223E-005	4	..........a	-327.66
	126	0.0254	-2.53630E-001	-1.77009E-008	0.00000E+000	-2.53800E-001	8.00223E-005	4	..........a	-327.66
	129	0.026	-2.23630E-001	-1.72709E-008	0.00000E+000	-2.23800E-001	8.00223E-005	4	..........a	-327.66
	132	0.0266	-1.93780E-001	-1.68159E-008	0.00000E+000	-1.93800E-001	8.00223E-005	4	..........a	-327.66
	135	0.0272	-1.63530E-001	-1.63338E-008	0.00000E+000	-1.63800E-001	8.00223E-005	4	..........a	-327.66
	138	0.0278	-1.33730E-001	-1.58288E-008	0.00000E+000	-1.33800E-001	8.00223E-005	4	..........a	-327.66
	141	0.0284	-1.03830E-001	-1.53038E-008	0.00000E+000	-1.03800E-001	8.00223E-005	4	..........a	-327.66
	144	0.029	-7.38305E-002	-1.47578E-008	0.00000E+000	-7.38000E-002	8.00223E-005	4	..........a	-327.66
	147	0.0296	-4.35305E-002	-1.41878E-008	0.00000E+000	-4.38000E-002	8.00223E-005	4	..........a	-327.66
	150	0.0302	-1.36305E-002	-1.36087E-008	0.00000E+000	-1.38000E-002	8.00223E-005	4	..........a	-327.66
	153	0.0308	1.62695E-002	-1.30017E-008	0.00000E+000	1.62000E-002	8.00223E-005	4	..........a	-327.66
	156	0.0314	4.63695E-002	-1.23817E-008	0.00000E+000	4.62000E-002	8.00223E-005	4	..........a	-327.66
	159	0.032	7.63695E-002	-1.17407E-008	0.00000E+000	7.62000E-002	8.00223E-005	4	..........a	-327.66
	162	0.0326	1.06470E-001	-1.10916E-008	0.00000E+000	1.06200E-001	8.00223E-005	4	..........a	-327.66
	165	0.0332	1.36270E-001	-1.04196E-008	0.00000E+000	1.36200E-001	8.00223E-005	4	..........a	-327.66
	168	0.0338	1.66070E-001	-9.74059E-009	0.00000E+000	1.66200E-001	8.00223E-005	4	..........a	-327.66
	171	0.0344	1.96270E-001	-9.03956E-009	0.00000E+000	1.96200E-001	8.00223E-005	4	..........a	-327.66
	174	0.035	2.26370E-001	-8.32753E-009	0.00000E+000	2.26200E-001	8.00223E-005	4	..........a	-327.66
	177	0.0356	2.56220E-001	-7.59650E-009	0.00000E+000	2.56200E-001	8.00223E-005	4	..........a	-327.66
	180	0.0362	2.86270E-001	-6.85048E-009	0.00000E+000	2.86200E-001	8.00223E-005	4	..........a	-327.66
	183	0.0368	3.16170E-001	-6.09445E-009	0.00000E+000	3.16200E-001	8.00223E-005	4	..........a	-327.66
	186	0.0374	3.46170E-001	-5.32442E-009	0.00000E+000	3.46200E-001	8.00223E-005	4	..........a	-327.66
	189	0.038	3.76370E-001	-4.54239E-009	0.00000E+000	3.76200E-001	8.00223E-005	4	..........a	-327.66
	192	0.0386	4.06070E-001	-3.74636E-009	0.00000E+000	4.06200E-001	8.00223E-005	4	..........a	-327.66
	195	0.0392	4.36170E-001	-2.94633E-009	0.00000E+000	4.36200E-001	8.00223E-005	4	..........a	-327.66
	198	0.0398	4.66170E-001	-2.13529E-009	0.00000E+000	4.66200E-001	8.00223E-005	4	..........a	-327.66
	201	0.0404	4.96270E-001	-1.32026E-009	0.00000E+000	4.96200E-001	8.00223E-005	4	..........a	-327.66
	204	0.041	5.26069E-001	-4.75231E-010	0.00000E+000	5.26200E-001	8.00223E-005	4	..........a	-327.66
	207	0.0416	5.56269E-001	3.68802E-010	0.00000E+000	5.56200E-001	8.00223E-005	4	..........a	-327.66
	210	0.0422	5.85970E-001	1.22583E-009	0.00000E+000	5.86200E-001	8.00223E-005	4	..........a	-327.66
	213	0.0428	6.16170E-001	2.10787E-009	0.00000E+000	6.16200E-001	8.00223E-005	4	..........a	-327.66
	216	0.0434	6.46069E-001	3.00490E-009	0.00000E+000	6.46200E-001	8.00223E-005	4	..........a	-327.66
	219	0.044	6.76169E-001	3.93294E-009	0.00000E+000	6.76200E-001	8.00223E-005	4	..........a	-327.66
	222	0.0446	7.06069E-001	4.88598E-009	0.00000E+000	7.06200E-001	8.00223E-005	4	..........a	-327.66
	225	0.0452	7.36070E-001	5.86601E-009	0.00000E+000	7.36200E-001	8.00223E-005	4	..........a	-327.66
	228	0.0458	7.66069E-001	6.89105E-009	0.00000E+000	7.66200E-001	8.00223E-005	4	..........a	-327.66
	231	0.0464	7.96070E-001	7.96409E-009	0.00000E+000	7.96200E-001	1.80022E-004	4	..........a	-327.66
CURVE2	TABLE
	Pt	T	Vf	Im	Vu	Sig	Ach	IERange	Over	Temp
	#	s	V vs. Ref.	A	V	V	V	#	bits	deg C
	232	0.0466	7.89869E-001	8.22210E-009	0.00000E+000	7.90000E-001	8.00223E-005	4	..........a	-327.66
	235	0.0472	7.59769E-001	8.69512E-009	0.00000E+000	7.60000E-001	8.00223E-005	4	..........a	-327.66
	238	0.0478	7.29869E-001	8.92413E-009	0.00000E+000	7.30000E-001	8.00223E-005	4	..........a	-327.66
	241	0.0484	6.99969E-001	9.01713E-009	0.00000E+000	7.00000E-001	8.00223E-005	4	..........a	-327.66
	244	0.049	6.69819E-001	9.00513E-009	0.00000E+000	6.70000E-001	8.00223E-005	4	..........a	-327.66
	247	0.0496	6.39870E-001	8.90913E-009	0.00000E+000	6.40000E-001	8.00223E-005	4	..........a	-327.66
	250	0.0502	6.09969E-001	8.74612E-009	0.00000E+000	6.10000E-001	8.00223E-005	4	..........a	-327.66
	253	0.0508	5.80169E-001	8.53611E-009	0.00000E+000	5.80000E-001	8.00223E-005	4	..........a	-327.66
	256	0.0514	5.49969E-001	8.27310E-009	0.00000E+000	5.50000E-001	8.00223E-005	4	..........a	-327.66
	259	0.052	5.19769E-001	7.97209E-009	0.00000E+000	5.20000E-001	8.00223E-005	4	..........a	-327.66
	262	0.0526	4.89970E-001	7.62908E-009	0.00000E+000	4.90000E-001	8.00223E-005	4	..........a	-327.66
	265	0.0532	4.59870E-001	7.25307E-009	0.00000E+000	4.60000E-001	8.00223E-005	4	..........a	-327.66
	268	0.0538	4.30070E-001	6.84105E-009	0.00000E+000	4.30000E-001	8.00223E-005	4	..........a	-327.66
	271	0.0544	3.99870E-001	6.40703E-009	0.00000E+000	4.00000E-001	8.00223E-005	4	..........a	-327.66
	274	0.055	3.69970E-001	5.93702E-009	0.00000E+000	3.70000E-001	8.00223E-005	4	..........a	-327.66
	277	0.0556	3.40070E-001	5.43700E-009	0.00000E+000	3.40000E-001	8.00223E-005	4	..........a	-327.66
	280	0.0562	3.09970E-001	4.90998E-009	0.00000E+000	3.10000E-001	8.00223E-005	4	..........a	-327.66
	283	0.0568	2.79870E-001	4.35795E-009	0.00000E+000	2.80000E-001	8.00223E-005	4	..........a	-327.66
	286	0.0574	2.50070E-001	3.77393E-009	0.00000E+000	2.50000E-001	8.00223E-005	4	..........a	-327.66
	289	0.058	2.20070E-001	3.16891E-009	0.00000E+000	2.20000E-001	8.00223E-005	4	..........a	-327.66
	292	0.0586	1.89970E-001	2.53188E-009	0.00000E+000	1.90000E-001	8.00223E-005	4	..........a	-327.66
	295	0.0592	1.60070E-001	1.87986E-009	0.00000E+000	1.60000E-001	8.00223E-005	4	..........a	-327.66
	298	0.0598	1.30070E-001	1.20883E-009	0.00000E+000	1.30000E-001	8.00223E-005	4	..........a	-327.66
	301	0.0604	1.00170E-001	5.24808E-010	0.00000E+000	1.00000E-001	8.00223E-005	4	..........a	-327.66
	304	0.061	6.98695E-002	-1.76219E-010	0.00000E+000	7.00000E-002	8.00223E-005	4	..........a	-327.66
	307	0.0616	3.99695E-002	-8.78246E-010	0.00000E+000	4.00000E-002	8.00223E-005	4	..........a	-327.66
	310	0.0622	1.00695E-002	-1.59227E-009	0.00000E+000	1.00000E-002	8.00223E-005	4	..........a	-327.66
	313	0.0628	-1.98305E-002	-2.31430E-009	0.00000E+000	-2.00000E-002	8.00223E-005	4	..........a	-327.66
	316	0.0634	-4.99305E-002	-3.02733E-009	0.00000E+000	-5.00000E-002	8.00223E-005	4	..........a	-327.66
	319	0.064	-7.98305E-002	-3.74936E-009	0.00000E+000	-8.00000E-002	-3.19978E-004	4	..........a	-327.66
	322	0.0646	-1.10030E-001	-4.47638E-009	0.00000E+000	-1.10000E-001	8.00223E-005	4	..........a	-327.66
	325	0.0652	-1.39930E-001	-5.19841E-009	0.00000E+000	-1.40000E-001	8.00223E-005	4	..........a	-327.66
	328	0.0658	-1.69930E-001	-5.91944E-009	0.00000E+000	-1.70000E-001	8.00223E-005	4	..........a	-327.66
	331	0.0664	-1.99830E-001	-6.65047E-009	0.00000E+000	-2.00000E-001	8.00223E-005	4	..........a	-327.66
	334	0.067	-2.29930E-001	-7.37250E-009	0.00000E+000	-2.30000E-001	8.00223E-005	4	..........a	-327.66
	337	0.0676	-2.59930E-001	-8.09652E-009	0.00000E+000	-2.60000E-001	8.00223E-005	4	..........a	-327.66
	340	0.0682	-2.90030E-001	-8.82755E-009	0.00000E+000	-2.90000E-001	8.00223E-005	4	..........a	-327.66
	343	0.0688	-3.19530E-001	-9.55858E-009	0.00000E+000	-3.20000E-001	8.00223E-005	4	..........a	-327.66
	346	0.0694	-3.49830E-001	-1.02946E-008	0.00000E+000	-3.50000E-001	8.00223E-005	4	..........a	-327.66
	349	0.07	-3.79830E-001	-1.10286E-008	0.00000E+000	-3.80000E-001	8.00223E-005	4	..........a	-327.66
	352	0.0706	-4.09930E-001	-1.17677E-008	0.00000E+000	-4.10000E-001	8.00223E-005	4	..........a	-327.66
[...]
	2646	0.5294	-2.50030E-001	-1.15787E-008	0.00000E+000	-2.50000E-001	8.00223E-005	4	..........a	-327.66
	2649	0.53	-2.19830E-001	-1.11626E-008	0.00000E+000	-2.20000E-001	8.00223E-005	4	..........a	-327.66
	2652	0.5306	-1.89830E-001	-1.07226E-008	0.00000E+000	-1.90000E-001	8.00223E-005	4	..........a	-327.66
	2655	0.5312	-1.59930E-001	-1.02506E-008	0.00000E+000	-1.60000E-001	8.00223E-005	4	..........a	-327.66
	2658	0.5318	-1.29930E-001	-9.76859E-009	0.00000E+000	-1.30000E-001	8.00223E-005	4	..........a	-327.66
	2661	0.5324	-9.99305E-002	-9.26657E-009	0.00000E+000	-1.00000E-001	-3.19978E-004	4	..........a	-327.66
	2664	0.533	-6.98305E-002	-8.75255E-009	0.00000E+000	-7.00000E-002	8.00223E-005	4	..........a	-327.66
	2667	0.5336	-3.99305E-002	-8.21653E-009	0.00000E+000	-4.00000E-002	8.00223E-005	4	..........a	-327.66
	2670	0.5342	-9.93048E-003	-7.66651E-009	0.00000E+000	-1.00000E-002	8.00223E-005	4	..........a	-327.66
	2673	0.5348	2.01695E-002	-7.10049E-009	0.00000E+000	2.00000E-002	8.00223E-005	4	..........a	-327.66
	2676	0.5354	5.01695E-002	-6.52346E-009	0.00000E+000	5.00000E-002	8.00223E-005	4	..........a	-327.66
	2679	0.536	8.01695E-002	-5.93044E-009	0.00000E+000	8.00000E-002	8.00223E-005	4	..........a	-327.66
	2682	0.5366	1.10070E-001	-5.32742E-009	0.00000E+000	1.10000E-001	8.00223E-005	4	..........a	-327.66
	2685	0.5372	1.40120E-001	-4.70239E-009	0.00000E+000	1.40000E-001	8.00223E-005	4	..........a	-327.66
	2688	0.5378	1.70070E-001	-4.06237E-009	0.00000E+000	1.70000E-001	8.00223E-005	4	..........a	-327.66
	2691	0.5384	2.00070E-001	-3.40534E-009	0.00000E+000	2.00000E-001	8.00223E-005	4	..........a	-327.66
	2694	0.539	2.30070E-001	-2.73632E-009	0.00000E+000	2.30000E-001	8.00223E-005	4	..........a	-327.66
	2697	0.5396	2.60070E-001	-2.04229E-009	0.00000E+000	2.60000E-001	8.00223E-005	4	..........a	-327.66
	2700	0.5402	2.90070E-001	-1.33526E-009	0.00000E+000	2.90000E-001	8.00223E-005	4	..........a	-327.66
	2703	0.5408	3.20070E-001	-6.14236E-010	0.00000E+000	3.20000E-001	8.00223E-005	4	..........a	-327.66
	2706	0.5414	3.49870E-001	1.27793E-010	0.00000E+000	3.50000E-001	8.00223E-005	4	..........a	-327.66
	2709	0.542	3.80070E-001	8.80821E-010	0.00000E+000	3.80000E-001	8.00223E-005	4	..........a	-327.66
	2712	0.5426	4.10070E-001	1.64785E-009	0.00000E+000	4.10000E-001	8.00223E-005	4	..........a	-327.66
	2715	0.5432	4.39820E-001	2.42588E-009	0.00000E+000	4.40000E-001	8.00223E-005	4	..........a	-327.66
	2718	0.5438	4.70070E-001	3.22091E-009	0.00000E+000	4.70000E-001	8.00223E-005	4	..........a	-327.66
	2721	0.5444	4.99770E-001	4.01994E-009	0.00000E+000	5.00000E-001	8.00223E-005	4	..........a	-327.66
	2724	0.545	5.30069E-001	4.83997E-009	0.00000E+000	5.30000E-001	8.00223E-005	4	..........a	-327.66
	2727	0.5456	5.59869E-001	5.67401E-009	0.00000E+000	5.60000E-001	8.00223E-005	4	..........a	-327.66
	2730	0.5462	5.89969E-001	6.52804E-009	0.00000E+000	5.90000E-001	8.00223E-005	4	..........a	-327.66
	2733	0.5468	6.19869E-001	7.39607E-009	0.00000E+000	6.20000E-001	8.00223E-005	4	..........a	-327.66
	2736	0.5474	6.50069E-001	8.28911E-009	0.00000E+000	6.50000E-001	8.00223E-005	4	..........a	-327.66
	2739	0.548	6.79769E-001	9.20414E-009	0.00000E+000	6.80000E-001	8.00223E-005	4	..........a	-327.66
	2742	0.5486	7.09870E-001	1.01442E-008	0.00000E+000	7.10000E-001	8.00223E-005	4	..........a	-327.66
	2745	0.5492	7.39769E-001	1.11202E-008	0.00000E+000	7.40000E-001	8.00223E-005	4	..........a	-327.66
	2748	0.5498	7.69769E-001	1.21353E-008	0.00000E+000	7.70000E-001	8.00223E-005	4	..........a	-327.66
	2751	0.5504	7.99869E-001	1.31933E-008	0.00000E+000	8.00000E-001	-2.19978E-004	4	..........a	-327.66
CURVE11	TABLE
	Pt	T	Vf	Im	Vu	Sig	Ach	IERange	Over	Temp
	#	s	V vs. Ref.	A	V	V	V	#	bits	deg C
	2752	0.5506	7.89869E-001	1.34253E-008	0.00000E+000	7.90000E-001	8.00223E-005	4	..........a	-327.66
	2753	0.5508	7.79769E-001	1.35953E-008	0.00000E+000	7.80000E-001	8.00223E-005	4	..........a	-327.66
	2754	0.551	7.69969E-001	1.37373E-008	0.00000E+000	7.70000E-001	8.00223E-005	4	..........a	-327.66
	2755	0.5512	7.59869E-001	1.38493E-008	0.00000E+000	7.60000E-001	8.00223E-005	4	..........a	-327.66
	2756	0.5514	7.49869E-001	1.39343E-008	0.00000E+000	7.50000E-001	8.00223E-005	4	..........a	-327.66
	2757	0.5516	7.39769E-001	1.40003E-008	0.00000E+000	7.40000E-001	8.00223E-005	4	..........a	-327.66
	2758	0.5518	7.29869E-001	1.40443E-008	0.00000E+000	7.30000E-001	-2.19978E-004	4	..........a	-327.66
	2759	0.552	7.19769E-001	1.40773E-008	0.00000E+000	7.20000E-001	8.00223E-005	4	..........a	-327.66
	2760	0.5522	7.09870E-001	1.40953E-008	0.00000E+000	7.10000E-001	8.00223E-005	4	..........a	-327.66
	2761	0.5524	6.99769E-001	1.41003E-008	0.00000E+000	7.00000E-001	8.00223E-005	4	..........a	-327.66
	2762	0.5526	6.89869E-001	1.40953E-008	0.00000E+000	6.90000E-001	8.00223E-005	4	..........a	-327.66
	2763	0.5528	6.79669E-001	1.40753E-008	0.00000E+000	6.80000E-001	8.00223E-005	4	..........a	-327.66
	2764	0.553	6.69869E-001	1.40463E-008	0.00000E+000	6.70000E-001	8.00223E-005	4	..........a	-327.66
	2765	0.5532	6.59869E-001	1.40143E-008	0.00000E+000	6.60000E-001	8.00223E-005	4	..........a	-327.66
	2766	0.5534	6.49769E-001	1.39703E-008	0.00000E+000	6.50000E-001	8.00223E-005	4	..........a	-327.66
	2767	0.5536	6.39669E-001	1.39143E-008	0.00000E+000	6.40000E-001	8.00223E-005	4	..........a	-327.66
	2768	0.5538	6.29869E-001	1.38583E-008	0.00000E+000	6.30000E-001	8.00223E-005	4	..........a	-327.66
	2769	0.554	6.19769E-001	1.37933E-008	0.00000E+000	6.20000E-001	-2.19978E-004	4	..........a	-327.66
	2770	0.5542	6.09769E-001	1.37193E-008	0.00000E+000	6.10000E-001	8.00223E-005	4	..........a	-327.66
	2771	0.5544	5.99819E-001	1.36413E-008	0.00000E+000	6.00000E-001	8.00223E-005	4	..........a	-327.66
	2772	0.5546	5.89969E-001	1.35573E-008	0.00000E+000	5.90000E-001	8.00223E-005	4	..........a	-327.66
	2773	0.5548	5.79870E-001	1.34623E-008	0.00000E+000	5.80000E-001	8.00223E-005	4	..........a	-327.66
	2774	0.555	5.69869E-001	1.33663E-008	0.00000E+000	5.70000E-001	8.00223E-005	4	..........a	-327.66
	2775	0.5552	5.59770E-001	1.32643E-008	0.00000E+000	5.60000E-001	8.00223E-005	4	..........a	-327.66
	2776	0.5554	5.49919E-001	1.31553E-008	0.00000E+000	5.50000E-001	8.00223E-005	4	..........a	-327.66
	2777	0.5556	5.39970E-001	1.30443E-008	0.00000E+000	5.40000E-001	8.00223E-005	4	..........a	-327.66
	2778	0.5558	5.29970E-001	1.29263E-008	0.00000E+000	5.30000E-001	8.00223E-005	4	..........a	-327.66
	2779	0.556	5.19870E-001	1.28063E-008	0.00000E+000	5.20000E-001	8.00223E-005	4	..........a	-327.66
	2780	0.5562	5.09870E-001	1.26803E-008	0.00000E+000	5.10000E-001	8.00223E-005	4	..........a	-327.66
	2781	0.5564	5.00170E-001	1.25473E-008	0.00000E+000	5.00000E-001	8.00223E-005	4	..........a	-327.66
	2782	0.5566	4.89870E-001	1.24153E-008	0.00000E+000	4.90000E-001	8.00223E-005	4	..........a	-327.66
	2783	0.5568	4.79970E-001	1.22753E-008	0.00000E+000	4.80000E-001	8.00223E-005	4	..........a	-327.66
	2784	0.557	4.70020E-001	1.21333E-008	0.00000E+000	4.70000E-001	8.00223E-005	4	..........a	-327.66
	2785	0.5572	4.59970E-001	1.19882E-008	0.00000E+000	4.60000E-001	8.00223E-005	4	..........a	-327.66
	2786	0.5574	4.49670E-001	1.18352E-008	0.00000E+000	4.50000E-001	8.00223E-005	4	..........a	-327.66
	2787	0.5576	4.39970E-001	1.16802E-008	0.00000E+000	4.40000E-001	8.00223E-005	4	..........a	-327.66
	2788	0.5578	4.29820E-001	1.15232E-008	0.00000E+000	4.30000E-001	8.00223E-005	4	..........a	-327.66
	2789	0.558	4.19970E-001	1.13562E-008	0.00000E+000	4.20000E-001	8.00223E-005	4	..........a	-327.66
	2790	0.5582	4.09970E-001	1.11942E-008	0.00000E+000	4.10000E-001	8.00223E-005	4	..........a	-327.66
	2791	0.5584	3.99770E-001	1.10232E-008	0.00000E+000	4.00000E-001	8.00223E-005	4	..........a	-327.66
	2792	0.5586	3.89970E-001	1.08462E-008	0.00000E+000	3.90000E-001	8.00223E-005	4	..........a	-327.66
	2793	0.5588	3.79870E-001	1.06772E-008	0.00000E+000	3.80000E-001	8.00223E-005	4	..........a	-327.66
	2794	0.559	3.69770E-001	1.04982E-008	0.00000E+000	3.70000E-001	8.00223E-005	4	..........a	-327.66
	2795	0.5592	3.59970E-001	1.03082E-008	0.00000E+000	3.60000E-001	8.00223E-005	4	..........a	-327.66
	2796	0.5594	3.49970E-001	1.01252E-008	0.00000E+000	3.50000E-001	8.00223E-005	4	..........a	-327.66
	2797	0.5596	3.40070E-001	9.93417E-009	0.00000E+000	3.40000E-001	8.00223E-005	4	..........a	-327.66
	2798	0.5598	3.30070E-001	9.73716E-009	0.00000E+000	3.30000E-001	8.00223E-005	4	..........a	-327.66
	2799	0.56	3.20070E-001	9.54415E-009	0.00000E+000	3.20000E-001	8.00223E-005	4	..........a	-327.66
	2800	0.5602	3.09970E-001	9.34215E-009	0.00000E+000	3.10000E-001	8.00223E-005	4	..........a	-327.66