File: example_project/raw_outputs/20240424_ZN_GM0016_HL03_E10_CV50K.DTA
EXPLAIN
TAG	CV
TITLE	LABEL	Cyclic Voltammetry	Test &Identifier
DATE	LABEL	4/24/2024	Date
TIME	LABEL	18:58:37	Time
NOTES	NOTES	1	&Notes...

PSTAT	PSTAT	REF600P-43058	Potentiostat
VINIT	POTEN	0.00000E+000	T	Initial &E (V)
VLIMIT1	POTEN	-6.00000E-001	F	Scan Limit &1 (V)
VLIMIT2	POTEN	8.00000E-001	F	Scan Limit &2 (V)
VFINAL	POTEN	0.00000E+000	T	Final &E (V)
SCANRATE	QUANT	4.99999E+004	&Scan Rate (mV/s)
STEPSIZE	QUANT	1.00000E+001	St&ep Size (mV)
CYCLES	IQUANT	10	C&ycles (#)
IMODE	SELECTOR	0	I/E Range &Mode
IRANGE	QUANT	1.00000E-005	&Max Current (mA)
AREA	QUANT	1.00000E+000	Electrode &Area (cm^2)
ELECTRODETYPE	SELECTOR	0	Electrode Type
STRIPPING	TOGGLE	F	Used for Stripping
POLARITY	TOGGLE	F	Signal Polarity
CONDIT	TWOPARAM	F	1.50000E+001	0.00000E+000	Conditionin&g	Time(s)	E(V)
DELAY	TWOPARAM	T	1.00000E+001	0.00000E+000	Init. De&lay	Time(s)	Stab.(mV/s)
EQDELAY	QUANT	1.00000E+001	Equil. &Time (s)
IRCOMP	SELECTOR	0	IRCom&p
PFCOR	QUANT	5.00000E+001	PF Corr. (ohm)
SAMPLINGMODE	SELECTOR	1	Sampling &Mode
OCVCURVE	TABLE	39
	Pt	T	Vf	Vm	Ach	Over	Temp
	#	s	V vs. Ref.	V	V	bits	deg C
	0	0.258333	-5.04108E-002	-5.04108E-002	2.36392E-004	..........a	-327.66
	1	0.516667	-5.04140E-002	-5.05808E-002	2.53992E-004	..........a	-327.66
	2	0.775	-5.04341E-002	-5.07477E-002	2.33859E-004	..........a	-327.66
	3	1.03333	-5.04914E-002	-5.09176E-002	2.31526E-004	..........a	-327.66
	4	1.29167	-5.05955E-002	-5.10862E-002	2.29792E-004	..........a	-327.66
	5	1.55	-5.07374E-002	-5.12615E-002	2.44592E-004	..........a	-327.66
	6	1.80833	-5.09003E-002	-5.14241E-002	2.22392E-004	..........a	-327.66
	7	2.06667	-5.10708E-002	-5.15908E-002	2.25526E-004	..........a	-327.66
	8	2.325	-5.12418E-002	-5.17571E-002	2.34326E-004	..........a	-327.66
	9	2.58333	-5.14108E-002	-5.19198E-002	2.43792E-004	..........a	-327.66
	10	2.84167	-5.15775E-002	-5.20804E-002	2.37259E-004	..........a	-327.66
	11	3.1	-5.17425E-002	-5.22418E-002	2.39392E-004	..........a	-327.66
	12	3.35833	-5.19058E-002	-5.24007E-002	2.31792E-004	..........a	-327.66
	13	3.61667	-5.20677E-002	-5.25611E-002	2.41459E-004	..........a	-327.66
	14	3.875	-5.22283E-002	-5.27115E-002	2.26126E-004	..........a	-327.66
	15	4.13333	-5.23875E-002	-5.28661E-002	2.28526E-004	..........a	-327.66
	16	4.39167	-5.25447E-002	-5.30192E-002	2.16859E-004	..........a	-327.66
	17	4.65	-5.27000E-002	-5.31688E-002	2.21392E-004	..........a	-327.66
	18	4.90833	-5.28536E-002	-5.33225E-002	2.34526E-004	..........a	-327.66
	19	5.16667	-5.30062E-002	-5.34713E-002	2.28192E-004	..........a	-327.66
	20	5.425	-5.31580E-002	-5.36218E-002	2.39926E-004	..........a	-327.66
	21	5.68333	-5.33092E-002	-5.37732E-002	2.42059E-004	..........a	-327.66
	22	5.94167	-5.34600E-002	-5.39271E-002	2.32326E-004	..........a	-327.66
	23	6.2	-5.36109E-002	-5.40737E-002	2.32126E-004	..........a	-327.66
	24	6.45833	-5.37617E-002	-5.42119E-002	2.34059E-004	..........a	-327.66
	25	6.71667	-5.39111E-002	-5.43546E-002	2.33192E-004	..........a	-327.66
	26	6.975	-5.40578E-002	-5.44998E-002	2.48259E-004	..........a	-327.66
	27	7.23333	-5.42021E-002	-5.46456E-002	2.25126E-004	..........a	-327.66
	28	7.49167	-5.43456E-002	-5.47885E-002	2.28992E-004	..........a	-327.66
	29	7.75	-5.44890E-002	-5.49172E-002	2.33592E-004	..........a	-327.66
	30	8.00833	-5.46314E-002	-5.50595E-002	2.38059E-004	..........a	-327.66
	31	8.26667	-5.47720E-002	-5.52033E-002	2.30592E-004	..........a	-327.66
	32	8.525	-5.49112E-002	-5.53382E-002	2.32992E-004	..........a	-327.66
	33	8.78333	-5.50502E-002	-5.54752E-002	2.26059E-004	..........a	-327.66
	34	9.04167	-5.51890E-002	-5.56105E-002	2.33192E-004	..........a	-327.66
	35	9.3	-5.53270E-002	-5.57460E-002	2.22459E-004	..........a	-327.66
	36	9.5583	-5.54638E-002	-5.58744E-002	2.26326E-004	..........a	-327.66
	37	9.8167	-5.55991E-002	-5.60104E-002	2.45526E-004	..........a	-327.66
	38	10.075	-5.57333E-002	-5.61460E-002	2.33259E-004	..........a	-327.66
EOC	QUANT	-0.0557333	Open Circuit (V)
PSTATMODEL	IQUANT	7	Pstat Model
PSTATSECTION	LABEL	REF600P-43058	Pstat Section
PSTATSERIALNO	LABEL	43058	Pstat Serial Number
CTRLMODE	IQUANT	1	Control Mode
ELECTROMETER	IQUANT	0	RE=0 or CS=1
IESTAB	IQUANT	2	I/E Stability
CASPEED	IQUANT	4	Control Amp Speed
CONVENTION	IQUANT	1	Current Convention
ICHRANGE	IQUANT	2	Ich Range
ICHRANGEMODE	TOGGLE	F	Ich Auto Range
ICHOFFSETENABLE	TOGGLE	F	Ich Offset Enable
ICHOFFSET	QUANT	0	Ich Offset (V)
ICHFILTER	IQUANT	1	Ich Filter
VCHRANGE	IQUANT	2	Vch Range
VCHRANGEMODE	TOGGLE	F	Vch Auto Range
VCHOFFSETENABLE	TOGGLE	F	Vch Offset Enable
VCHOFFSET	QUANT	0	Vch Offset (V)
VCHFILTER	IQUANT	1	Vch Filter
ACHRANGE	IQUANT	2	Ach Range
ACHOFFSETENABLE	TOGGLE	F	Ach Offset Enable
ACHOFFSET	QUANT	0	Ach Offset (V)
ACHFILTER	IQUANT	1	Ach Filter
IERANGELOWERLIMIT	IQUANT	1	I/E Range Lower Limit
IERANGEMODE	TOGGLE	T	I/E AutoRange
IERANGE	IQUANT	4	I/E Range
POSFEEDENABLE	TOGGLE	F	Positive Feedback IR Comp
POSFEEDRESISTANCE	QUANT	0	Positive Feedback Resistance (ohm)
ACHSELECT	IQUANT	4	Ach Select
SENSECABLEID	IQUANT	7	Sense Cable ID
PWRCABLEID	IQUANT	7	Power Cable ID
DCCALDATE	LABEL	3/22/2024	DC Calibration Date
ACCALDATE	LABEL	3/22/2024	AC Calibration Date
THERMOSELECT	IQUANT	1	Thermo Select
FRAMEWORKVERSION	LABEL	7.8.4	Framework Version
INSTRUMENTVERSION	LABEL	4.42	Instrument Version
CURVE1	TABLE
	Pt	T	Vf	Im	Vu	Sig	Ach	IERange	Over	Temp
	#	s	V vs. Ref.	A	V	V	V	#	bits	deg C
	0	0.0002	-5.57529E-002	2.65002E-007	0.00000E+000	-5.57500E-002	8.15923E-005	8	..........a	-327.66
	2	0.0006	-7.56529E-002	-1.67507E-006	0.00000E+000	-7.57500E-002	8.15923E-005	8	..........a	-327.66
	4	0.001	-9.57529E-002	-2.75511E-006	0.00000E+000	-9.57500E-002	8.15923E-005	8	..........a	-327.66
	6	0.0014	-1.15653E-001	-3.50514E-006	0.00000E+000	-1.15750E-001	8.15923E-005	8	..........a	-327.66
	8	0.0018	-1.35753E-001	-4.21517E-006	0.00000E+000	-1.35750E-001	8.15923E-005	8	..........a	-327.66
	10	0.0022	-1.55653E-001	-4.67519E-006	0.00000E+000	-1.55750E-001	-3.18408E-004	8	..........a	-327.66
	12	0.0026	-1.75653E-001	-5.15521E-006	0.00000E+000	-1.75750E-001	8.15923E-005	8	..........a	-327.66
	14	0.003	-1.95703E-001	-5.48522E-006	0.00000E+000	-1.95750E-001	8.15923E-005	8	..........a	-327.66
	16	0.0034	-2.15653E-001	-5.81523E-006	0.00000E+000	-2.15750E-001	8.15923E-005	8	..........a	-327.66
	18	0.0038	-2.35653E-001	-6.04524E-006	0.00000E+000	-2.35750E-001	-3.18408E-004	8	..........a	-327.66
	20	0.0042	-2.55853E-001	-6.41525E-006	0.00000E+000	-2.55750E-001	-4.18408E-004	8	..........a	-327.66
	22	0.0046	-2.75653E-001	-6.62526E-006	0.00000E+000	-2.75750E-001	8.15923E-005	8	..........a	-327.66
	24	0.005	-2.95653E-001	-6.89527E-006	0.00000E+000	-2.95750E-001	8.15923E-005	8	..........a	-327.66
	26	0.0054	-3.15653E-001	-7.16528E-006	0.00000E+000	-3.15750E-001	8.15923E-005	8	..........a	-327.66
	28	0.0058	-3.35753E-001	-7.42529E-006	0.00000E+000	-3.35750E-001	-3.18408E-004	8	..........a	-327.66
	30	0.0062	-3.55653E-001	-7.70530E-006	0.00000E+000	-3.55750E-001	8.15923E-005	8	..........a	-327.66
	32	0.0066	-3.75753E-001	-7.99531E-006	0.00000E+000	-3.75750E-001	8.15923E-005	8	..........a	-327.66
	34	0.007	-3.95653E-001	-8.26532E-006	0.00000E+000	-3.95750E-001	8.15923E-005	8	..........a	-327.66
	36	0.0074	-4.15653E-001	-8.53533E-006	0.00000E+000	-4.15750E-001	8.15923E-005	8	..........a	-327.66
	38	0.0078	-4.35553E-001	-8.87535E-006	0.00000E+000	-4.35750E-001	8.15923E-005	8	..........a	-327.66
	40	0.0082	-4.55553E-001	-9.15536E-006	0.00000E+000	-4.55750E-001	8.15923E-005	8	..........a	-327.66
	42	0.0086	-4.75553E-001	-9.47537E-006	0.00000E+000	-4.75750E-001	8.15923E-005	8	..........a	-327.66
	44	0.009	-4.95553E-001	-9.79538E-006	0.00000E+000	-4.95750E-001	8.15923E-005	8	..........a	-327.66
	46	0.0094	-5.15753E-001	-1.01254E-005	0.00000E+000	-5.15750E-001	8.15923E-005	8	..........a	-327.66
	48	0.0098	-5.35653E-001	-1.04454E-005	0.00000E+000	-5.35750E-001	8.15923E-005	8	..........a	-327.66
	50	0.0102	-5.55653E-001	-1.07254E-005	0.00000E+000	-5.55750E-001	8.15923E-005	8	..........a	-327.66
	52	0.0106	-5.75553E-001	-1.10454E-005	0.00000E+000	-5.75750E-001	8.15923E-005	8	..........a	-327.66
	54	0.011	-5.95553E-001	-1.13154E-005	0.00000E+000	-5.95750E-001	8.15923E-005	8	..........a	-327.66
	56	0.0114	-5.75653E-001	-7.54530E-006	0.00000E+000	-5.75750E-001	8.15923E-005	8	..........a	-327.66
	58	0.0118	-5.55653E-001	-5.10520E-006	0.00000E+000	-5.55750E-001	8.15923E-005	8	..........a	-327.66
	60	0.0122	-5.35653E-001	-3.29513E-006	0.00000E+000	-5.35750E-001	8.15923E-005	8	..........a	-327.66
	62	0.0126	-5.15753E-001	-1.84508E-006	0.00000E+000	-5.15750E-001	8.15923E-005	8	..........a	-327.66
	64	0.013	-4.95753E-001	-6.55033E-007	0.00000E+000	-4.95750E-001	8.15923E-005	8	..........a	-327.66
	66	0.0134	-4.75653E-001	4.25008E-007	0.00000E+000	-4.75750E-001	8.15923E-005	8	..........a	-327.66
	68	0.0138	-4.55753E-001	1.27504E-006	0.00000E+000	-4.55750E-001	8.15923E-005	8	..........a	-327.66
	70	0.0142	-4.35653E-001	2.03507E-006	0.00000E+000	-4.35750E-001	8.15923E-005	8	..........a	-327.66
	72	0.0146	-4.15703E-001	2.71510E-006	0.00000E+000	-4.15750E-001	8.15923E-005	8	..........a	-327.66
	74	0.015	-3.95553E-001	3.30512E-006	0.00000E+000	-3.95750E-001	8.15923E-005	8	..........a	-327.66
	76	0.0154	-3.75753E-001	3.81514E-006	0.00000E+000	-3.75750E-001	8.15923E-005	8	..........a	-327.66
	78	0.0158	-3.55553E-001	4.27516E-006	0.00000E+000	-3.55750E-001	8.15923E-005	8	..........a	-327.66
	80	0.0162	-3.35703E-001	4.77518E-006	0.00000E+000	-3.35750E-001	-2.18408E-004	8	..........a	-327.66
	82	0.0166	-3.15653E-001	5.08519E-006	0.00000E+000	-3.15750E-001	8.15923E-005	8	..........a	-327.66
	84	0.017	-2.95653E-001	5.47520E-006	0.00000E+000	-2.95750E-001	8.15923E-005	8	..........a	-327.66
	86	0.0174	-2.75553E-001	5.78521E-006	0.00000E+000	-2.75750E-001	8.15923E-005	8	..........a	-327.66
	88	0.0178	-2.55653E-001	6.07522E-006	0.00000E+000	-2.55750E-001	8.15923E-005	8	..........a	-327.66
	90	0.0182	-2.35603E-001	6.36524E-006	0.00000E+000	-2.35750E-001	8.15923E-005	8	..........a	-327.66
	92	0.0186	-2.15753E-001	6.61525E-006	0.00000E+000	-2.15750E-001	8.15923E-005	8	..........a	-327.66
	94	0.019	-1.95653E-001	6.87526E-006	0.00000E+000	-1.95750E-001	-3.18408E-004	8	..........a	-327.66
	96	0.0194	-1.75653E-001	7.07526E-006	0.00000E+000	-1.75750E-001	8.15923E-005	8	..........a	-327.66
	98	0.0198	-1.55703E-001	7.29527E-006	0.00000E+000	-1.55750E-001	8.15923E-005	8	..........a	-327.66
	100	0.0202	-1.35803E-001	7.51528E-006	0.00000E+000	-1.35750E-001	8.15923E-005	8	..........a	-327.66
	102	0.0206	-1.15753E-001	7.69529E-006	0.00000E+000	-1.15750E-001	8.15923E-005	8	..........a	-327.66
	104	0.021	-9.56529E-002	7.88529E-006	0.00000E+000	-9.57500E-002	8.15923E-005	8	..........a	-327.66
	106	0.0214	-7.58029E-002	8.09530E-006	0.00000E+000	-7.57500E-002	-2.18408E-004	8	..........a	-327.66
	108	0.0218	-5.56529E-002	8.22531E-006	0.00000E+000	-5.57500E-002	8.15923E-005	8	..........a	-327.66
	110	0.0222	-3.57529E-002	8.43532E-006	0.00000E+000	-3.57500E-002	8.15923E-005	8	..........a	-327.66
	112	0.0226	-1.56529E-002	8.60532E-006	0.00000E+000	-1.57500E-002	8.15923E-005	8	..........a	-327.66
	114	0.023	4.24711E-003	8.82533E-006	0.00000E+000	4.25000E-003	-4.18408E-004	8	..........a	-327.66
	116	0.0234	2.42971E-002	9.03534E-006	0.00000E+000	2.42500E-002	8.15923E-005	8	..........a	-327.66
	118	0.0238	4.42971E-002	9.24535E-006	0.00000E+000	4.42500E-002	-3.18408E-004	8	..........a	-327.66
	120	0.0242	6.41471E-002	9.51536E-006	0.00000E+000	6.42500E-002	-1.18408E-004	8	..........a	-327.66
	122	0.0246	8.42471E-002	9.80537E-006	0.00000E+000	8.42500E-002	8.15923E-005	8	..........a	-327.66
	124	0.025	1.04347E-001	1.00054E-005	0.00000E+000	1.04250E-001	8.15923E-005	8	..........a	-327.66
	126	0.0254	1.24247E-001	1.02854E-005	0.00000E+000	1.24250E-001	8.15923E-005	8	..........a	-327.66
	128	0.0258	1.44247E-001	1.06454E-005	0.00000E+000	1.44250E-001	8.15923E-005	8	..........a	-327.66
	130	0.0262	1.64347E-001	1.11354E-005	0.00000E+000	1.64250E-001	8.15923E-005	8	..........a	-327.66
	132	0.0266	1.84347E-001	1.15554E-005	0.00000E+000	1.84250E-001	8.15923E-005	8	..........a	-327.66
	134	0.027	2.04347E-001	1.18954E-005	0.00000E+000	2.04250E-001	-3.18408E-004	8	..........a	-327.66
	136	0.0274	2.24247E-001	1.23155E-005	0.00000E+000	2.24250E-001	8.15923E-005	8	..........a	-327.66
	138	0.0278	2.44197E-001	1.28355E-005	0.00000E+000	2.44250E-001	-3.18408E-004	8	..........a	-327.66
	140	0.0282	2.64247E-001	1.36655E-005	0.00000E+000	2.64250E-001	8.15923E-005	8	..........a	-327.66
	142	0.0286	2.84247E-001	1.45055E-005	0.00000E+000	2.84250E-001	8.15923E-005	8	..........a	-327.66
	144	0.029	3.04247E-001	1.52256E-005	0.00000E+000	3.04250E-001	-3.18408E-004	8	..........a	-327.66
	146	0.0294	3.24247E-001	1.57956E-005	0.00000E+000	3.24250E-001	8.15923E-005	8	..........a	-327.66
	148	0.0298	3.44347E-001	1.60156E-005	0.00000E+000	3.44250E-001	-3.18408E-004	8	..........a	-327.66
	150	0.0302	3.64347E-001	1.61356E-005	0.00000E+000	3.64250E-001	8.15923E-005	8	..........a	-327.66
	152	0.0306	3.84247E-001	1.63256E-005	0.00000E+000	3.84250E-001	8.15923E-005	8	..........a	-327.66
	154	0.031	4.04347E-001	1.66656E-005	0.00000E+000	4.04250E-001	8.15923E-005	8	..........a	-327.66
	156	0.0314	4.24047E-001	1.70756E-005	0.00000E+000	4.24250E-001	8.15923E-005	8	..........a	-327.66
	158	0.0318	4.44247E-001	1.75357E-005	0.00000E+000	4.44250E-001	8.15923E-005	8	..........a	-327.66
	160	0.0322	4.64147E-001	1.80257E-005	0.00000E+000	4.64250E-001	8.15923E-005	8	..........a	-327.66
	162	0.0326	4.84197E-001	1.84857E-005	0.00000E+000	4.84250E-001	8.15923E-005	8	..........a	-327.66
	164	0.033	5.04247E-001	1.88257E-005	0.00000E+000	5.04250E-001	8.15923E-005	8	..........a	-327.66
	166	0.0334	5.24147E-001	1.91457E-005	0.00000E+000	5.24250E-001	8.15923E-005	8	..........a	-327.66
	168	0.0338	5.44247E-001	1.93357E-005	0.00000E+000	5.44250E-001	8.15923E-005	8	..........a	-327.66
	170	0.0342	5.64247E-001	1.95657E-005	0.00000E+000	5.64250E-001	8.15923E-005	8	..........a	-327.66
	172	0.0346	5.84247E-001	1.97557E-005	0.00000E+000	5.84250E-001	8.15923E-005	8	..........a	-327.66
	174	0.035	6.04347E-001	2.00458E-005	0.00000E+000	6.04250E-001	8.15923E-005	8	..........a	-327.66
	176	0.0354	6.24147E-001	2.03558E-005	0.00000E+000	6.24250E-001	8.15923E-005	8	..........a	-327.66
	178	0.0358	6.44247E-001	2.07358E-005	0.00000E+000	6.44250E-001	8.15923E-005	8	..........a	-327.66
	180	0.0362	6.64247E-001	2.11258E-005	0.00000E+000	6.64250E-001	8.15923E-005	8	..........a	-327.66
	182	0.0366	6.84197E-001	2.14358E-005	0.00000E+000	6.84250E-001	8.15923E-005	8	..........a	-327.66
	184	0.037	7.04247E-001	2.17658E-005	0.00000E+000	7.04250E-001	8.15923E-005	8	..........a	-327.66
	186	0.0374	7.24247E-001	2.21158E-005	0.00000E+000	7.24250E-001	8.15923E-005	8	..........a	-327.66
	188	0.0378	7.44247E-001	2.22658E-005	0.00000E+000	7.44250E-001	8.15923E-005	8	..........a	-327.66
	190	0.0382	7.64247E-001	2.24058E-005	0.00000E+000	7.64250E-001	8.15923E-005	8	..........a	-327.66
	192	0.0386	7.84247E-001	2.25859E-005	0.00000E+000	7.84250E-001	8.15923E-005	8	..........a	-327.66
	194	0.039	8.04247E-001	2.27259E-005	0.00000E+000	8.04250E-001	8.15923E-005	8	..........a	-327.66
CURVE2	TABLE
	Pt	T	Vf	Im	Vu	Sig	Ach	IERange	Over	Temp
	#	s	V vs. Ref.	A	V	V	V	#	bits	deg C
	195	0.0392	7.89947E-001	1.88457E-005	0.00000E+000	7.90000E-001	8.15923E-005	8	..........a	-327.66
	198	0.0398	7.59947E-001	1.29055E-005	0.00000E+000	7.60000E-001	8.15923E-005	8	..........a	-327.66
	201	0.0404	7.29847E-001	8.84533E-006	0.00000E+000	7.30000E-001	8.15923E-005	8	..........a	-327.66
	204	0.041	6.99947E-001	5.74521E-006	0.00000E+000	7.00000E-001	8.15923E-005	8	..........a	-327.66
	207	0.0416	6.69847E-001	3.29512E-006	0.00000E+000	6.70000E-001	8.15923E-005	8	..........a	-327.66
	210	0.0422	6.39947E-001	1.26504E-006	0.00000E+000	6.40000E-001	8.15923E-005	8	..........a	-327.66
	213	0.0428	6.09947E-001	-6.15032E-007	0.00000E+000	6.10000E-001	-2.18408E-004	8	..........a	-327.66
	216	0.0434	5.80197E-001	-2.10509E-006	0.00000E+000	5.80000E-001	8.15923E-005	8	..........a	-327.66
	219	0.044	5.50047E-001	-3.40514E-006	0.00000E+000	5.50000E-001	8.15923E-005	8	..........a	-327.66
	222	0.0446	5.20147E-001	-4.59518E-006	0.00000E+000	5.20000E-001	8.15923E-005	8	..........a	-327.66
	225	0.0452	4.90047E-001	-5.60522E-006	0.00000E+000	4.90000E-001	8.15923E-005	8	..........a	-327.66
	228	0.0458	4.59947E-001	-6.51526E-006	0.00000E+000	4.60000E-001	8.15923E-005	8	..........a	-327.66
	231	0.0464	4.29847E-001	-7.34529E-006	0.00000E+000	4.30000E-001	8.15923E-005	8	..........a	-327.66
	234	0.047	4.00147E-001	-8.15532E-006	0.00000E+000	4.00000E-001	8.15923E-005	8	..........a	-327.66
	237	0.0476	3.70147E-001	-8.95535E-006	0.00000E+000	3.70000E-001	8.15923E-005	8	..........a	-327.66
	240	0.0482	3.40047E-001	-9.72538E-006	0.00000E+000	3.40000E-001	8.15923E-005	8	..........a	-327.66
	243	0.0488	3.10047E-001	-1.06154E-005	0.00000E+000	3.10000E-001	8.15923E-005	8	..........a	-327.66
	246	0.0494	2.80047E-001	-1.13754E-005	0.00000E+000	2.80000E-001	8.15923E-005	8	..........a	-327.66
	249	0.05	2.49947E-001	-1.22255E-005	0.00000E+000	2.50000E-001	8.15923E-005	8	..........a	-327.66
	252	0.0506	2.20097E-001	-1.31755E-005	0.00000E+000	2.20000E-001	8.15923E-005	8	..........a	-327.66
	255	0.0512	1.90047E-001	-1.40755E-005	0.00000E+000	1.90000E-001	8.15923E-005	8	..........a	-327.66
[...]
	2716	0.5434	7.79747E-001	1.51656E-005	0.00000E+000	7.80000E-001	-3.18408E-004	8	..........a	-327.66
	2717	0.5436	7.70047E-001	1.32855E-005	0.00000E+000	7.70000E-001	8.15923E-005	8	..........a	-327.66
	2718	0.5438	7.59647E-001	1.16954E-005	0.00000E+000	7.60000E-001	8.15923E-005	8	..........a	-327.66
	2719	0.544	7.49947E-001	1.02454E-005	0.00000E+000	7.50000E-001	-2.18408E-004	8	..........a	-327.66
	2720	0.5442	7.40097E-001	8.97534E-006	0.00000E+000	7.40000E-001	8.15923E-005	8	..........a	-327.66
	2721	0.5444	7.29897E-001	7.82529E-006	0.00000E+000	7.30000E-001	8.15923E-005	8	..........a	-327.66
	2722	0.5446	7.19847E-001	6.78525E-006	0.00000E+000	7.20000E-001	8.15923E-005	8	..........a	-327.66
	2723	0.5448	7.09897E-001	5.81521E-006	0.00000E+000	7.10000E-001	8.15923E-005	8	..........a	-327.66
	2724	0.545	7.00147E-001	4.91518E-006	0.00000E+000	7.00000E-001	8.15923E-005	8	..........a	-327.66
	2725	0.5452	6.89847E-001	4.10515E-006	0.00000E+000	6.90000E-001	8.15923E-005	8	..........a	-327.66
	2726	0.5454	6.79947E-001	3.31512E-006	0.00000E+000	6.80000E-001	8.15923E-005	8	..........a	-327.66
	2727	0.5456	6.69747E-001	2.56509E-006	0.00000E+000	6.70000E-001	8.15923E-005	8	..........a	-327.66
	2728	0.5458	6.60147E-001	1.88506E-006	0.00000E+000	6.60000E-001	-2.18408E-004	8	..........a	-327.66
	2729	0.546	6.49947E-001	1.31504E-006	0.00000E+000	6.50000E-001	8.15923E-005	8	..........a	-327.66
	2730	0.5462	6.39797E-001	6.75018E-007	0.00000E+000	6.40000E-001	8.15923E-005	8	..........a	-327.66
	2731	0.5464	6.29847E-001	6.49945E-008	0.00000E+000	6.30000E-001	8.15923E-005	8	..........a	-327.66
	2732	0.5466	6.20047E-001	-4.85027E-007	0.00000E+000	6.20000E-001	-3.18408E-004	8	..........a	-327.66
	2733	0.5468	6.10047E-001	-1.00505E-006	0.00000E+000	6.10000E-001	8.15923E-005	8	..........a	-327.66
	2734	0.547	5.99947E-001	-1.48506E-006	0.00000E+000	6.00000E-001	8.15923E-005	8	..........a	-327.66
	2735	0.5472	5.89947E-001	-1.94508E-006	0.00000E+000	5.90000E-001	-3.18408E-004	8	..........a	-327.66
	2736	0.5474	5.79847E-001	-2.36510E-006	0.00000E+000	5.80000E-001	8.15923E-005	8	..........a	-327.66
	2737	0.5476	5.69947E-001	-2.85512E-006	0.00000E+000	5.70000E-001	8.15923E-005	8	..........a	-327.66
	2738	0.5478	5.60147E-001	-3.23513E-006	0.00000E+000	5.60000E-001	8.15923E-005	8	..........a	-327.66
	2739	0.548	5.50097E-001	-3.52514E-006	0.00000E+000	5.50000E-001	8.15923E-005	8	..........a	-327.66
	2740	0.5482	5.40147E-001	-3.96516E-006	0.00000E+000	5.40000E-001	8.15923E-005	8	..........a	-327.66
	2741	0.5484	5.30147E-001	-4.28517E-006	0.00000E+000	5.30000E-001	8.15923E-005	8	..........a	-327.66
	2742	0.5486	5.20047E-001	-4.67519E-006	0.00000E+000	5.20000E-001	8.15923E-005	8	..........a	-327.66
	2743	0.5488	5.09947E-001	-4.99520E-006	0.00000E+000	5.10000E-001	8.15923E-005	8	..........a	-327.66
	2744	0.549	5.00047E-001	-5.31521E-006	0.00000E+000	5.00000E-001	-2.18408E-004	8	..........a	-327.66
	2745	0.5492	4.89947E-001	-5.64522E-006	0.00000E+000	4.90000E-001	8.15923E-005	8	..........a	-327.66
	2746	0.5494	4.79847E-001	-6.01524E-006	0.00000E+000	4.80000E-001	8.15923E-005	8	..........a	-327.66
	2747	0.5496	4.69947E-001	-6.30525E-006	0.00000E+000	4.70000E-001	8.15923E-005	8	..........a	-327.66
	2748	0.5498	4.60147E-001	-6.61526E-006	0.00000E+000	4.60000E-001	8.15923E-005	8	..........a	-327.66
	2749	0.55	4.50047E-001	-6.93527E-006	0.00000E+000	4.50000E-001	8.15923E-005	8	..........a	-327.66
	2750	0.5502	4.39947E-001	-7.21528E-006	0.00000E+000	4.40000E-001	8.15923E-005	8	..........a	-327.66
	2751	0.5504	4.29947E-001	-7.49529E-006	0.00000E+000	4.30000E-001	8.15923E-005	8	..........a	-327.66
	2752	0.5506	4.20047E-001	-7.83531E-006	0.00000E+000	4.20000E-001	8.15923E-005	8	..........a	-327.66
	2753	0.5508	4.10047E-001	-8.05532E-006	0.00000E+000	4.10000E-001	8.15923E-005	8	..........a	-327.66
	2754	0.551	4.00047E-001	-8.35533E-006	0.00000E+000	4.00000E-001	8.15923E-005	8	..........a	-327.66
	2755	0.5512	3.90147E-001	-8.63534E-006	0.00000E+000	3.90000E-001	8.15923E-005	8	..........a	-327.66
	2756	0.5514	3.80147E-001	-8.93535E-006	0.00000E+000	3.80000E-001	8.15923E-005	8	..........a	-327.66
	2757	0.5516	3.70047E-001	-9.22536E-006	0.00000E+000	3.70000E-001	8.15923E-005	8	..........a	-327.66
	2758	0.5518	3.60047E-001	-9.51537E-006	0.00000E+000	3.60000E-001	8.15923E-005	8	..........a	-327.66
	2759	0.552	3.50047E-001	-9.83538E-006	0.00000E+000	3.50000E-001	8.15923E-005	8	..........a	-327.66
	2760	0.5522	3.40047E-001	-1.01154E-005	0.00000E+000	3.40000E-001	8.15923E-005	8	..........a	-327.66
	2761	0.5524	3.29847E-001	-1.04154E-005	0.00000E+000	3.30000E-001	8.15923E-005	8	..........a	-327.66
	2762	0.5526	3.20147E-001	-1.07254E-005	0.00000E+000	3.20000E-001	8.15923E-005	8	..........a	-327.66
	2763	0.5528	3.10047E-001	-1.10054E-005	0.00000E+000	3.10000E-001	8.15923E-005	8	..........a	-327.66
	2764	0.553	3.00247E-001	-1.12754E-005	0.00000E+000	3.00000E-001	8.15923E-005	8	..........a	-327.66
	2765	0.5532	2.90047E-001	-1.15154E-005	0.00000E+000	2.90000E-001	8.15923E-005	8	..........a	-327.66
	2766	0.5534	2.80247E-001	-1.18255E-005	0.00000E+000	2.80000E-001	8.15923E-005	8	..........a	-327.66
	2767	0.5536	2.70047E-001	-1.20755E-005	0.00000E+000	2.70000E-001	8.15923E-005	8	..........a	-327.66
	2768	0.5538	2.60147E-001	-1.23255E-005	0.00000E+000	2.60000E-001	1.81592E-004	8	..........a	-327.66
	2769	0.554	2.49897E-001	-1.25655E-005	0.00000E+000	2.50000E-001	8.15923E-005	8	..........a	-327.66
	2770	0.5542	2.39997E-001	-1.28255E-005	0.00000E+000	2.40000E-001	8.15923E-005	8	..........a	-327.66
	2771	0.5544	2.29947E-001	-1.30155E-005	0.00000E+000	2.30000E-001	8.15923E-005	8	..........a	-327.66
	2772	0.5546	2.19647E-001	-1.32255E-005	0.00000E+000	2.20000E-001	8.15923E-005	8	..........a	-327.66
	2773	0.5548	2.09947E-001	-1.33655E-005	0.00000E+000	2.10000E-001	8.15923E-005	8	..........a	-327.66
	2774	0.555	2.00147E-001	-1.35655E-005	0.00000E+000	2.00000E-001	8.15923E-005	8	..........a	-327.66
	2775	0.5552	1.90047E-001	-1.37155E-005	0.00000E+000	1.90000E-001	8.15923E-005	8	..........a	-327.66
	2776	0.5554	1.80247E-001	-1.38855E-005	0.00000E+000	1.80000E-001	8.15923E-005	8	..........a	-327.66
	2777	0.5556	1.70047E-001	-1.40755E-005	0.00000E+000	1.70000E-001	8.15923E-005	8	..........a	-327.66
	2778	0.5558	1.60047E-001	-1.42256E-005	0.00000E+000	1.60000E-001	8.15923E-005	8	..........a	-327.66
	2779	0.556	1.49947E-001	-1.43356E-005	0.00000E+000	1.50000E-001	8.15923E-005	8	..........a	-327.66
	2780	0.5562	1.40047E-001	-1.44056E-005	0.00000E+000	1.40000E-001	8.15923E-005	8	..........a	-327.66
	2781	0.5564	1.30047E-001	-1.45356E-005	0.00000E+000	1.30000E-001	8.15923E-005	8	..........a	-327.66
	2782	0.5566	1.20147E-001	-1.46956E-005	0.00000E+000	1.20000E-001	8.15923E-005	8	..........a	-327.66
	2783	0.5568	1.10047E-001	-1.47456E-005	0.00000E+000	1.10000E-001	8.15923E-005	8	..........a	-327.66
	2784	0.557	1.00147E-001	-1.49156E-005	0.00000E+000	1.00000E-001	8.15923E-005	8	..........a	-327.66
	2785	0.5572	8.99471E-002	-1.49856E-005	0.00000E+000	9.00000E-002	8.15923E-005	8	..........a	-327.66
	2786	0.5574	8.01471E-002	-1.51356E-005	0.00000E+000	8.00000E-002	8.15923E-005	8	..........a	-327.66
	2787	0.5576	6.99471E-002	-1.52756E-005	0.00000E+000	7.00000E-002	8.15923E-005	8	..........a	-327.66
	2788	0.5578	6.00471E-002	-1.54056E-005	0.00000E+000	6.00000E-002	8.15923E-005	8	..........a	-327.66
	2789	0.558	5.00471E-002	-1.55656E-005	0.00000E+000	5.00000E-002	8.15923E-005	8	..........a	-327.66
	2790	0.5582	4.01471E-002	-1.57156E-005	0.00000E+000	4.00000E-002	8.15923E-005	8	..........a	-327.66
	2791	0.5584	2.99471E-002	-1.58156E-005	0.00000E+000	3.00000E-002	8.15923E-005	8	..........a	-327.66
	2792	0.5586	2.02471E-002	-1.59456E-005	0.00000E+000	2.00000E-002	8.15923E-005	8	..........a	-327.66
	2793	0.5588	1.00471E-002	-1.60356E-005	0.00000E+000	1.00000E-002	8.15923E-005	8	..........a	-327.66
	2794	0.559	1.47114E-004	-1.61656E-005	0.00000E+000	7.45058E-009	8.15923E-005	8	..........a	-327.66
	2795	0.5592	-9.95289E-003	-1.63156E-005	0.00000E+000	-1.00000E-002	8.15923E-005	8	..........a	-327.66
	2796	0.5594	-1.99529E-002	-1.64856E-005	0.00000E+000	-2.00000E-002	8.15923E-005	8	..........a	-327.66
	2797	0.5596	-2.99529E-002	-1.66456E-005	0.00000E+000	-3.00000E-002	8.15923E-005	8	..........a	-327.66
	2798	0.5598	-4.01529E-002	-1.67556E-005	0.00000E+000	-4.00000E-002	8.15923E-005	8	..........a	-327.66
	2799	0.56	-4.99529E-002	-1.69357E-005	0.00000E+000	-5.00000E-002	8.15923E-005	8	..........a	-327.66
	2800	0.5602	-5.97529E-002	-1.71657E-005	0.00000E+000	-6.00000E-002	8.15923E-005	8	..........a	-327.66