File: example_project/raw_outputs/20240321_H_GM0016_HL03_E02_CV50k.DTA
EXPLAIN
TAG	CV
TITLE	LABEL	Cyclic Voltammetry	Test &Identifier
DATE	LABEL	3/21/2024	Date
TIME	LABEL	16:43:14	Time
NOTES	NOTES	1	&Notes...

PSTAT	PSTAT	REF600P-43058	Potentiostat
VINIT	POTEN	0.00000E+000	T	Initial &E (V)
VLIMIT1	POTEN	-6.00000E-001	F	Scan Limit &1 (V)
VLIMIT2	POTEN	8.00000E-001	F	Scan Limit &2 (V)
VFINAL	POTEN	0.00000E+000	T	Final &E (V)
SCANRATE	QUANT	4.99999E+004	&Scan Rate (mV/s)
STEPSIZE	QUANT	1.00000E+001	St&ep Size (mV)
CYCLES	IQUANT	10	C&ycles (#)
IMODE	SELECTOR	1	I/E Range &Mode
IRANGE	QUANT	1.00000E-005	&Max Current (mA)
AREA	QUANT	1.00000E+000	Electrode &Area (cm^2)
ELECTRODETYPE	SELECTOR	0	Electrode Type
STRIPPING	TOGGLE	F	Used for Stripping
POLARITY	TOGGLE	F	Signal Polarity
CONDIT	TWOPARAM	F	1.50000E+001	0.00000E+000	Conditionin&g	Time(s)	E(V)
DELAY	TWOPARAM	T	1.00000E+001	0.00000E+000	Init. De&lay	Time(s)	Stab.(mV/s)
EQDELAY	QUANT	1.00000E+001	Equil. &Time (s)
IRCOMP	SELECTOR	0	IRCom&p
PFCOR	QUANT	5.00000E+001	PF Corr. (ohm)
SAMPLINGMODE	SELECTOR	1	Sampling &Mode
OCVCURVE	TABLE	39
	Pt	T	Vf	Vm	Ach	Over	Temp
	#	s	V vs. Ref.	V	V	bits	deg C
	0	0.258333	3.06820E-001	3.06820E-001	2.28622E-004	..........a	-327.66
	1	0.516667	3.06827E-001	3.07163E-001	2.33622E-004	..........a	-327.66
	2	0.775	3.06866E-001	3.07426E-001	2.22489E-004	..........a	-327.66
	3	1.03333	3.06975E-001	3.07843E-001	2.31022E-004	..........a	-327.66
	4	1.29167	3.07174E-001	3.08060E-001	2.32222E-004	..........a	-327.66
	5	1.55	3.07442E-001	3.08293E-001	2.23022E-004	..........a	-327.66
	6	1.80833	3.07735E-001	3.08604E-001	2.16822E-004	..........a	-327.66
	7	2.06667	3.08023E-001	3.08894E-001	2.24956E-004	..........a	-327.66
	8	2.325	3.08304E-001	3.09164E-001	2.17289E-004	..........a	-327.66
	9	2.58333	3.08586E-001	3.09585E-001	2.25222E-004	..........a	-327.66
	10	2.84167	3.08878E-001	3.09749E-001	2.32822E-004	..........a	-327.66
	11	3.1	3.09177E-001	3.09994E-001	2.20889E-004	..........a	-327.66
	12	3.35833	3.09467E-001	3.10309E-001	2.19422E-004	..........a	-327.66
	13	3.61667	3.09742E-001	3.10610E-001	2.23622E-004	..........a	-327.66
	14	3.875	3.10014E-001	3.10938E-001	2.16622E-004	..........a	-327.66
	15	4.13333	3.10298E-001	3.11226E-001	2.32689E-004	..........a	-327.66
	16	4.39167	3.10593E-001	3.11439E-001	2.29222E-004	..........a	-327.66
	17	4.65	3.10887E-001	3.11719E-001	2.24422E-004	..........a	-327.66
	18	4.90833	3.11170E-001	3.12016E-001	2.35422E-004	..........a	-327.66
	19	5.16667	3.11442E-001	3.12287E-001	2.20889E-004	..........a	-327.66
	20	5.425	3.11714E-001	3.12636E-001	2.14422E-004	..........a	-327.66
	21	5.68333	3.11996E-001	3.12894E-001	2.33289E-004	..........a	-327.66
	22	5.94167	3.12286E-001	3.13111E-001	2.27689E-004	..........a	-327.66
	23	6.2	3.12573E-001	3.13399E-001	2.19289E-004	..........a	-327.66
	24	6.45833	3.12850E-001	3.13693E-001	2.35022E-004	..........a	-327.66
	25	6.71667	3.13118E-001	3.13944E-001	2.19356E-004	..........a	-327.66
	26	6.975	3.13389E-001	3.14309E-001	2.21089E-004	..........a	-327.66
	27	7.23333	3.13667E-001	3.14517E-001	2.32689E-004	..........a	-327.66
	28	7.49167	3.13950E-001	3.14755E-001	2.25022E-004	..........a	-327.66
	29	7.75	3.14229E-001	3.15039E-001	2.21422E-004	..........a	-327.66
	30	8.00833	3.14497E-001	3.15334E-001	2.26222E-004	..........a	-327.66
	31	8.26667	3.14760E-001	3.15588E-001	2.16956E-004	..........a	-327.66
	32	8.525	3.15029E-001	3.15939E-001	2.23156E-004	..........a	-327.66
	33	8.78333	3.15306E-001	3.16163E-001	2.29689E-004	..........a	-327.66
	34	9.04167	3.15590E-001	3.16400E-001	2.24222E-004	..........a	-327.66
	35	9.3	3.15869E-001	3.16664E-001	2.23822E-004	..........a	-327.66
	36	9.5583	3.16136E-001	3.16973E-001	2.22289E-004	..........a	-327.66
	37	9.8167	3.16399E-001	3.17227E-001	2.23222E-004	..........a	-327.66
	38	10.075	3.16665E-001	3.17548E-001	2.25089E-004	..........a	-327.66
EOC	QUANT	0.3166654	Open Circuit (V)
PSTATMODEL	IQUANT	7	Pstat Model
PSTATSECTION	LABEL	REF600P-43058	Pstat Section
PSTATSERIALNO	LABEL	43058	Pstat Serial Number
CTRLMODE	IQUANT	1	Control Mode
ELECTROMETER	IQUANT	0	RE=0 or CS=1
IESTAB	IQUANT	2	I/E Stability
CASPEED	IQUANT	4	Control Amp Speed
CONVENTION	IQUANT	1	Current Convention
ICHRANGE	IQUANT	2	Ich Range
ICHRANGEMODE	TOGGLE	F	Ich Auto Range
ICHOFFSETENABLE	TOGGLE	F	Ich Offset Enable
ICHOFFSET	QUANT	0	Ich Offset (V)
ICHFILTER	IQUANT	1	Ich Filter
VCHRANGE	IQUANT	2	Vch Range
VCHRANGEMODE	TOGGLE	F	Vch Auto Range
VCHOFFSETENABLE	TOGGLE	F	Vch Offset Enable
VCHOFFSET	QUANT	0	Vch Offset (V)
VCHFILTER	IQUANT	1	Vch Filter
ACHRANGE	IQUANT	2	Ach Range
ACHOFFSETENABLE	TOGGLE	F	Ach Offset Enable
ACHOFFSET	QUANT	0	Ach Offset (V)
ACHFILTER	IQUANT	1	Ach Filter
IERANGELOWERLIMIT	IQUANT	1	I/E Range Lower Limit
IERANGEMODE	TOGGLE	F	I/E AutoRange
IERANGE	IQUANT	4	I/E Range
POSFEEDENABLE	TOGGLE	F	Positive Feedback IR Comp
POSFEEDRESISTANCE	QUANT	0	Positive Feedback Resistance (ohm)
ACHSELECT	IQUANT	4	Ach Select
SENSECABLEID	IQUANT	7	Sense Cable ID
PWRCABLEID	IQUANT	7	Power Cable ID
DCCALDATE	LABEL	12/18/2023	DC Calibration Date
ACCALDATE	LABEL	12/18/2023	AC Calibration Date
THERMOSELECT	IQUANT	1	Thermo Select
FRAMEWORKVERSION	LABEL	7.8.4	Framework Version
INSTRUMENTVERSION	LABEL	4.42	Instrument Version
CURVE1	TABLE
	Pt	T	Vf	Im	Vu	Sig	Ach	IERange	Over	Temp
	#	s	V vs. Ref.	A	V	V	V	#	bits	deg C
	0	0.0002	3.16570E-001	2.47886E-011	0.00000E+000	3.16650E-001	8.00223E-005	4	..........a	-327.66
	3	0.0008	2.86570E-001	-1.15217E-010	0.00000E+000	2.86650E-001	8.00223E-005	4	..........a	-327.66
	6	0.0014	2.56570E-001	-2.90224E-010	0.00000E+000	2.56650E-001	-3.19978E-004	4	..........a	-327.66
	9	0.002	2.26770E-001	-4.78231E-010	0.00000E+000	2.26650E-001	8.00223E-005	4	..........a	-327.66
	12	0.0026	1.96470E-001	-7.01239E-010	0.00000E+000	1.96650E-001	8.00223E-005	4	..........a	-327.66
	15	0.0032	1.66670E-001	-9.40249E-010	0.00000E+000	1.66650E-001	8.00223E-005	4	..........a	-327.66
	18	0.0038	1.36870E-001	-1.20326E-009	0.00000E+000	1.36650E-001	8.00223E-005	4	..........a	-327.66
	21	0.0044	1.06570E-001	-1.49027E-009	0.00000E+000	1.06650E-001	8.00223E-005	4	..........a	-327.66
	24	0.005	7.66195E-002	-1.79628E-009	0.00000E+000	7.66500E-002	8.00223E-005	4	..........a	-327.66
	27	0.0056	4.66695E-002	-2.12529E-009	0.00000E+000	4.66500E-002	8.00223E-005	4	..........a	-327.66
	30	0.0062	1.66695E-002	-2.47531E-009	0.00000E+000	1.66500E-002	8.00223E-005	4	..........a	-327.66
	33	0.0068	-1.32305E-002	-2.84432E-009	0.00000E+000	-1.33500E-002	8.00223E-005	4	..........a	-327.66
	36	0.0074	-4.33305E-002	-3.23934E-009	0.00000E+000	-4.33500E-002	8.00223E-005	4	..........a	-327.66
	39	0.008	-7.32305E-002	-3.65235E-009	0.00000E+000	-7.33500E-002	8.00223E-005	4	..........a	-327.66
	42	0.0086	-1.03330E-001	-4.09137E-009	0.00000E+000	-1.03350E-001	8.00223E-005	4	..........a	-327.66
	45	0.0092	-1.33330E-001	-4.55239E-009	0.00000E+000	-1.33350E-001	8.00223E-005	4	..........a	-327.66
	48	0.0098	-1.63230E-001	-5.02841E-009	0.00000E+000	-1.63350E-001	8.00223E-005	4	..........a	-327.66
	51	0.0104	-1.93330E-001	-5.51942E-009	0.00000E+000	-1.93350E-001	8.00223E-005	4	..........a	-327.66
	54	0.011	-2.23330E-001	-6.03144E-009	0.00000E+000	-2.23350E-001	8.00223E-005	4	..........a	-327.66
	57	0.0116	-2.53330E-001	-6.55246E-009	0.00000E+000	-2.53350E-001	8.00223E-005	4	..........a	-327.66
	60	0.0122	-2.83330E-001	-7.08048E-009	0.00000E+000	-2.83350E-001	8.00223E-005	4	..........a	-327.66
	63	0.0128	-3.13330E-001	-7.62251E-009	0.00000E+000	-3.13350E-001	8.00223E-005	4	..........a	-327.66
	66	0.0134	-3.43330E-001	-8.15953E-009	0.00000E+000	-3.43350E-001	8.00223E-005	4	..........a	-327.66
	69	0.014	-3.73130E-001	-8.70855E-009	0.00000E+000	-3.73350E-001	8.00223E-005	4	..........a	-327.66
	72	0.0146	-4.03130E-001	-9.25557E-009	0.00000E+000	-4.03350E-001	8.00223E-005	4	..........a	-327.66
	75	0.0152	-4.33330E-001	-9.80259E-009	0.00000E+000	-4.33350E-001	8.00223E-005	4	..........a	-327.66
	78	0.0158	-4.63130E-001	-1.03626E-008	0.00000E+000	-4.63350E-001	8.00223E-005	4	..........a	-327.66
	81	0.0164	-4.93130E-001	-1.09316E-008	0.00000E+000	-4.93350E-001	8.00223E-005	4	..........a	-327.66
	84	0.017	-5.23130E-001	-1.15087E-008	0.00000E+000	-5.23350E-001	8.00223E-005	4	..........a	-327.66
	87	0.0176	-5.53230E-001	-1.21067E-008	0.00000E+000	-5.53350E-001	8.00223E-005	4	..........a	-327.66
	90	0.0182	-5.83230E-001	-1.27327E-008	0.00000E+000	-5.83350E-001	8.00223E-005	4	..........a	-327.66
	93	0.0188	-5.93230E-001	-1.32467E-008	0.00000E+000	-5.93350E-001	8.00223E-005	4	..........a	-327.66
	96	0.0194	-5.63130E-001	-1.33467E-008	0.00000E+000	-5.63350E-001	8.00223E-005	4	..........a	-327.66
	99	0.02	-5.33230E-001	-1.33217E-008	0.00000E+000	-5.33350E-001	8.00223E-005	4	..........a	-327.66
	102	0.0206	-5.03130E-001	-1.32367E-008	0.00000E+000	-5.03350E-001	8.00223E-005	4	..........a	-327.66
	105	0.0212	-4.73230E-001	-1.31027E-008	0.00000E+000	-4.73350E-001	8.00223E-005	4	..........a	-327.66
	108	0.0218	-4.43330E-001	-1.29387E-008	0.00000E+000	-4.43350E-001	8.00223E-005	4	..........a	-327.66
	111	0.0224	-4.13130E-001	-1.27507E-008	0.00000E+000	-4.13350E-001	8.00223E-005	4	..........a	-327.66
	114	0.023	-3.83330E-001	-1.25487E-008	0.00000E+000	-3.83350E-001	8.00223E-005	4	..........a	-327.66
	117	0.0236	-3.53230E-001	-1.23257E-008	0.00000E+000	-3.53350E-001	8.00223E-005	4	..........a	-327.66
	120	0.0242	-3.23330E-001	-1.20877E-008	0.00000E+000	-3.23350E-001	8.00223E-005	4	..........a	-327.66
	123	0.0248	-2.93230E-001	-1.18437E-008	0.00000E+000	-2.93350E-001	8.00223E-005	4	..........a	-327.66
	126	0.0254	-2.63130E-001	-1.15847E-008	0.00000E+000	-2.63350E-001	8.00223E-005	4	..........a	-327.66
	129	0.026	-2.33230E-001	-1.13166E-008	0.00000E+000	-2.33350E-001	8.00223E-005	4	..........a	-327.66
	132	0.0266	-2.03230E-001	-1.10446E-008	0.00000E+000	-2.03350E-001	8.00223E-005	4	..........a	-327.66
	135	0.0272	-1.73130E-001	-1.07556E-008	0.00000E+000	-1.73350E-001	8.00223E-005	4	..........a	-327.66
	138	0.0278	-1.43430E-001	-1.04606E-008	0.00000E+000	-1.43350E-001	8.00223E-005	4	..........a	-327.66
	141	0.0284	-1.13230E-001	-1.01596E-008	0.00000E+000	-1.13350E-001	-2.19978E-004	4	..........a	-327.66
	144	0.029	-8.31305E-002	-9.84859E-009	0.00000E+000	-8.33500E-002	8.00223E-005	4	..........a	-327.66
	147	0.0296	-5.33805E-002	-9.53458E-009	0.00000E+000	-5.33500E-002	8.00223E-005	4	..........a	-327.66
	150	0.0302	-2.32305E-002	-9.20257E-009	0.00000E+000	-2.33500E-002	-3.19978E-004	4	..........a	-327.66
	153	0.0308	6.66952E-003	-8.86455E-009	0.00000E+000	6.65000E-003	8.00223E-005	4	..........a	-327.66
	156	0.0314	3.67695E-002	-8.51554E-009	0.00000E+000	3.66500E-002	8.00223E-005	4	..........a	-327.66
	159	0.032	6.67695E-002	-8.15053E-009	0.00000E+000	6.66500E-002	8.00223E-005	4	..........a	-327.66
	162	0.0326	9.67695E-002	-7.77851E-009	0.00000E+000	9.66500E-002	8.00223E-005	4	..........a	-327.66
	165	0.0332	1.26570E-001	-7.38750E-009	0.00000E+000	1.26650E-001	8.00223E-005	4	..........a	-327.66
	168	0.0338	1.56770E-001	-6.97748E-009	0.00000E+000	1.56650E-001	8.00223E-005	4	..........a	-327.66
	171	0.0344	1.86670E-001	-6.55646E-009	0.00000E+000	1.86650E-001	8.00223E-005	4	..........a	-327.66
	174	0.035	2.16570E-001	-6.10045E-009	0.00000E+000	2.16650E-001	8.00223E-005	4	..........a	-327.66
	177	0.0356	2.46570E-001	-5.62943E-009	0.00000E+000	2.46650E-001	8.00223E-005	4	..........a	-327.66
	180	0.0362	2.76870E-001	-5.13141E-009	0.00000E+000	2.76650E-001	8.00223E-005	4	..........a	-327.66
	183	0.0368	3.06670E-001	-4.60639E-009	0.00000E+000	3.06650E-001	8.00223E-005	4	..........a	-327.66
	186	0.0374	3.36570E-001	-4.05037E-009	0.00000E+000	3.36650E-001	8.00223E-005	4	..........a	-327.66
	189	0.038	3.66470E-001	-3.48435E-009	0.00000E+000	3.66650E-001	8.00223E-005	4	..........a	-327.66
	192	0.0386	3.96570E-001	-2.88832E-009	0.00000E+000	3.96650E-001	8.00223E-005	4	..........a	-327.66
	195	0.0392	4.26620E-001	-2.28030E-009	0.00000E+000	4.26650E-001	8.00223E-005	4	..........a	-327.66
	198	0.0398	4.56570E-001	-1.64728E-009	0.00000E+000	4.56650E-001	8.00223E-005	4	..........a	-327.66
	201	0.0404	4.86570E-001	-1.00125E-009	0.00000E+000	4.86650E-001	8.00223E-005	4	..........a	-327.66
	204	0.041	5.16469E-001	-3.42225E-010	0.00000E+000	5.16650E-001	8.00223E-005	4	..........a	-327.66
	207	0.0416	5.46669E-001	3.34800E-010	0.00000E+000	5.46650E-001	-2.19978E-004	4	..........a	-327.66
	210	0.0422	5.76970E-001	1.02783E-009	0.00000E+000	5.76650E-001	8.00223E-005	4	..........a	-327.66
	213	0.0428	6.06770E-001	1.74085E-009	0.00000E+000	6.06650E-001	8.00223E-005	4	..........a	-327.66
	216	0.0434	6.36669E-001	2.46488E-009	0.00000E+000	6.36650E-001	8.00223E-005	4	..........a	-327.66
	219	0.044	6.66669E-001	3.20391E-009	0.00000E+000	6.66650E-001	-3.19978E-004	4	..........a	-327.66
	222	0.0446	6.96469E-001	3.96494E-009	0.00000E+000	6.96650E-001	8.00223E-005	4	..........a	-327.66
	225	0.0452	7.26469E-001	4.75397E-009	0.00000E+000	7.26650E-001	8.00223E-005	4	..........a	-327.66
	228	0.0458	7.56469E-001	5.55400E-009	0.00000E+000	7.56650E-001	8.00223E-005	4	..........a	-327.66
	231	0.0464	7.86519E-001	6.39403E-009	0.00000E+000	7.86650E-001	8.00223E-005	4	..........a	-327.66
	232	0.0466	7.96469E-001	6.67604E-009	0.00000E+000	7.96650E-001	-2.19978E-004	4	..........a	-327.66
CURVE2	TABLE
	Pt	T	Vf	Im	Vu	Sig	Ach	IERange	Over	Temp
	#	s	V vs. Ref.	A	V	V	V	#	bits	deg C
	233	0.0468	7.89869E-001	6.85205E-009	0.00000E+000	7.90000E-001	8.00223E-005	4	..........a	-327.66
	236	0.0474	7.59869E-001	7.09206E-009	0.00000E+000	7.60000E-001	8.00223E-005	4	..........a	-327.66
	239	0.048	7.29869E-001	7.13406E-009	0.00000E+000	7.30000E-001	8.00223E-005	4	..........a	-327.66
	242	0.0486	6.99869E-001	7.08206E-009	0.00000E+000	7.00000E-001	8.00223E-005	4	..........a	-327.66
	245	0.0492	6.69869E-001	6.95505E-009	0.00000E+000	6.70000E-001	8.00223E-005	4	..........a	-327.66
	248	0.0498	6.39870E-001	6.79305E-009	0.00000E+000	6.40000E-001	8.00223E-005	4	..........a	-327.66
	251	0.0504	6.09869E-001	6.58604E-009	0.00000E+000	6.10000E-001	8.00223E-005	4	..........a	-327.66
	254	0.051	5.79969E-001	6.35403E-009	0.00000E+000	5.80000E-001	-2.19978E-004	4	..........a	-327.66
	257	0.0516	5.49869E-001	6.09402E-009	0.00000E+000	5.50000E-001	8.00223E-005	4	..........a	-327.66
	260	0.0522	5.19969E-001	5.80801E-009	0.00000E+000	5.20000E-001	-2.19978E-004	4	..........a	-327.66
	263	0.0528	4.89770E-001	5.50100E-009	0.00000E+000	4.90000E-001	-2.19978E-004	4	..........a	-327.66
	266	0.0534	4.60070E-001	5.16599E-009	0.00000E+000	4.60000E-001	8.00223E-005	4	..........a	-327.66
	269	0.054	4.29870E-001	4.79797E-009	0.00000E+000	4.30000E-001	8.00223E-005	4	..........a	-327.66
	272	0.0546	3.99820E-001	4.41096E-009	0.00000E+000	4.00000E-001	8.00223E-005	4	..........a	-327.66
	275	0.0552	3.69970E-001	3.98694E-009	0.00000E+000	3.70000E-001	8.00223E-005	4	..........a	-327.66
	278	0.0558	3.39970E-001	3.52992E-009	0.00000E+000	3.40000E-001	8.00223E-005	4	..........a	-327.66
	281	0.0564	3.10070E-001	3.03690E-009	0.00000E+000	3.10000E-001	8.00223E-005	4	..........a	-327.66
	284	0.057	2.79770E-001	2.50988E-009	0.00000E+000	2.80000E-001	8.00223E-005	4	..........a	-327.66
	287	0.0576	2.49920E-001	1.95186E-009	0.00000E+000	2.50000E-001	8.00223E-005	4	..........a	-327.66
	290	0.0582	2.20170E-001	1.37684E-009	0.00000E+000	2.20000E-001	8.00223E-005	4	..........a	-327.66
	293	0.0588	1.90070E-001	7.75817E-010	0.00000E+000	1.90000E-001	8.00223E-005	4	..........a	-327.66
	296	0.0594	1.59970E-001	1.67794E-010	0.00000E+000	1.60000E-001	8.00223E-005	4	..........a	-327.66
	299	0.06	1.30070E-001	-4.35229E-010	0.00000E+000	1.30000E-001	8.00223E-005	4	..........a	-327.66
	302	0.0606	9.98695E-002	-1.03025E-009	0.00000E+000	1.00000E-001	-2.19978E-004	4	..........a	-327.66
	305	0.0612	7.00695E-002	-1.60327E-009	0.00000E+000	7.00000E-002	8.00223E-005	4	..........a	-327.66
	308	0.0618	4.03695E-002	-2.15429E-009	0.00000E+000	4.00000E-002	8.00223E-005	4	..........a	-327.66
	311	0.0624	1.00695E-002	-2.68932E-009	0.00000E+000	1.00000E-002	8.00223E-005	4	..........a	-327.66
	314	0.063	-2.00305E-002	-3.20334E-009	0.00000E+000	-2.00000E-002	8.00223E-005	4	..........a	-327.66
	317	0.0636	-4.98305E-002	-3.69935E-009	0.00000E+000	-5.00000E-002	8.00223E-005	4	..........a	-327.66
	320	0.0642	-7.97305E-002	-4.18437E-009	0.00000E+000	-8.00000E-002	8.00223E-005	4	..........a	-327.66
	323	0.0648	-1.09930E-001	-4.65139E-009	0.00000E+000	-1.10000E-001	8.00223E-005	4	..........a	-327.66
	326	0.0654	-1.40130E-001	-5.10441E-009	0.00000E+000	-1.40000E-001	-3.19978E-004	4	..........a	-327.66
	329	0.066	-1.69930E-001	-5.54843E-009	0.00000E+000	-1.70000E-001	8.00223E-005	4	..........a	-327.66
	332	0.0666	-1.99930E-001	-5.98344E-009	0.00000E+000	-2.00000E-001	8.00223E-005	4	..........a	-327.66
	335	0.0672	-2.29930E-001	-6.40146E-009	0.00000E+000	-2.30000E-001	8.00223E-005	4	..........a	-327.66
	338	0.0678	-2.59630E-001	-6.82447E-009	0.00000E+000	-2.60000E-001	8.00223E-005	4	..........a	-327.66
	341	0.0684	-2.90030E-001	-7.23349E-009	0.00000E+000	-2.90000E-001	8.00223E-005	4	..........a	-327.66
	344	0.069	-3.19830E-001	-7.64551E-009	0.00000E+000	-3.20000E-001	8.00223E-005	4	..........a	-327.66
	347	0.0696	-3.49830E-001	-8.05352E-009	0.00000E+000	-3.50000E-001	8.00223E-005	4	..........a	-327.66
	350	0.0702	-3.79730E-001	-8.46354E-009	0.00000E+000	-3.80000E-001	8.00223E-005	4	..........a	-327.66
[...]
	2644	0.529	-2.79930E-001	-7.61850E-009	0.00000E+000	-2.80000E-001	8.00223E-005	4	..........a	-327.66
	2647	0.5296	-2.49930E-001	-7.36850E-009	0.00000E+000	-2.50000E-001	8.00223E-005	4	..........a	-327.66
	2650	0.5302	-2.19830E-001	-7.11849E-009	0.00000E+000	-2.20000E-001	8.00223E-005	4	..........a	-327.66
	2653	0.5308	-1.89830E-001	-6.85448E-009	0.00000E+000	-1.90000E-001	8.00223E-005	4	..........a	-327.66
	2656	0.5314	-1.59930E-001	-6.58447E-009	0.00000E+000	-1.60000E-001	-3.19978E-004	4	..........a	-327.66
	2659	0.532	-1.29930E-001	-6.31246E-009	0.00000E+000	-1.30000E-001	8.00223E-005	4	..........a	-327.66
	2662	0.5326	-9.99305E-002	-6.03044E-009	0.00000E+000	-1.00000E-001	8.00223E-005	4	..........a	-327.66
	2665	0.5332	-6.99305E-002	-5.73843E-009	0.00000E+000	-7.00000E-002	-3.19978E-004	4	..........a	-327.66
	2668	0.5338	-3.99305E-002	-5.44442E-009	0.00000E+000	-4.00000E-002	8.00223E-005	4	..........a	-327.66
	2671	0.5344	-9.93048E-003	-5.13941E-009	0.00000E+000	-1.00000E-002	8.00223E-005	4	..........a	-327.66
	2674	0.535	2.02195E-002	-4.82140E-009	0.00000E+000	2.00000E-002	8.00223E-005	4	..........a	-327.66
	2677	0.5356	4.98695E-002	-4.50039E-009	0.00000E+000	5.00000E-002	8.00223E-005	4	..........a	-327.66
	2680	0.5362	7.99695E-002	-4.16037E-009	0.00000E+000	8.00000E-002	8.00223E-005	4	..........a	-327.66
	2683	0.5368	1.09970E-001	-3.80436E-009	0.00000E+000	1.10000E-001	8.00223E-005	4	..........a	-327.66
	2686	0.5374	1.40070E-001	-3.42434E-009	0.00000E+000	1.40000E-001	-3.19978E-004	4	..........a	-327.66
	2689	0.538	1.70070E-001	-3.03733E-009	0.00000E+000	1.70000E-001	8.00223E-005	4	..........a	-327.66
	2692	0.5386	1.99870E-001	-2.61931E-009	0.00000E+000	2.00000E-001	8.00223E-005	4	..........a	-327.66
	2695	0.5392	2.30070E-001	-2.17330E-009	0.00000E+000	2.30000E-001	-3.19978E-004	4	..........a	-327.66
	2698	0.5398	2.59870E-001	-1.69328E-009	0.00000E+000	2.60000E-001	-3.19978E-004	4	..........a	-327.66
	2701	0.5404	2.89870E-001	-1.18326E-009	0.00000E+000	2.90000E-001	8.00223E-005	4	..........a	-327.66
	2704	0.541	3.19870E-001	-6.42237E-010	0.00000E+000	3.20000E-001	8.00223E-005	4	..........a	-327.66
	2707	0.5416	3.49970E-001	-6.92150E-011	0.00000E+000	3.50000E-001	8.00223E-005	4	..........a	-327.66
	2710	0.5422	3.79970E-001	5.33808E-010	0.00000E+000	3.80000E-001	-3.19978E-004	4	..........a	-327.66
	2713	0.5428	4.09870E-001	1.15683E-009	0.00000E+000	4.10000E-001	8.00223E-005	4	..........a	-327.66
	2716	0.5434	4.39870E-001	1.80486E-009	0.00000E+000	4.40000E-001	8.00223E-005	4	..........a	-327.66
	2719	0.544	4.69970E-001	2.47288E-009	0.00000E+000	4.70000E-001	8.00223E-005	4	..........a	-327.66
	2722	0.5446	4.99870E-001	3.15491E-009	0.00000E+000	5.00000E-001	-3.19978E-004	4	..........a	-327.66
	2725	0.5452	5.29869E-001	3.84894E-009	0.00000E+000	5.30000E-001	8.00223E-005	4	..........a	-327.66
	2728	0.5458	5.59669E-001	4.55296E-009	0.00000E+000	5.60000E-001	8.00223E-005	4	..........a	-327.66
	2731	0.5464	5.89969E-001	5.27099E-009	0.00000E+000	5.90000E-001	8.00223E-005	4	..........a	-327.66
	2734	0.547	6.19769E-001	5.99602E-009	0.00000E+000	6.20000E-001	8.00223E-005	4	..........a	-327.66
	2737	0.5476	6.49769E-001	6.73005E-009	0.00000E+000	6.50000E-001	8.00223E-005	4	..........a	-327.66
	2740	0.5482	6.79669E-001	7.46707E-009	0.00000E+000	6.80000E-001	8.00223E-005	4	..........a	-327.66
	2743	0.5488	7.09870E-001	8.22510E-009	0.00000E+000	7.10000E-001	8.00223E-005	4	..........a	-327.66
	2746	0.5494	7.39869E-001	8.99313E-009	0.00000E+000	7.40000E-001	8.00223E-005	4	..........a	-327.66
	2749	0.55	7.69870E-001	9.78416E-009	0.00000E+000	7.70000E-001	8.00223E-005	4	..........a	-327.66
	2752	0.5506	7.99969E-001	1.06102E-008	0.00000E+000	8.00000E-001	8.00223E-005	4	..........a	-327.66
CURVE11	TABLE
	Pt	T	Vf	Im	Vu	Sig	Ach	IERange	Over	Temp
	#	s	V vs. Ref.	A	V	V	V	#	bits	deg C
	2753	0.5508	7.89869E-001	1.07492E-008	0.00000E+000	7.90000E-001	8.00223E-005	4	..........a	-327.66
	2754	0.551	7.79819E-001	1.08372E-008	0.00000E+000	7.80000E-001	8.00223E-005	4	..........a	-327.66
	2755	0.5512	7.69969E-001	1.09022E-008	0.00000E+000	7.70000E-001	8.00223E-005	4	..........a	-327.66
	2756	0.5514	7.59769E-001	1.09342E-008	0.00000E+000	7.60000E-001	8.00223E-005	4	..........a	-327.66
	2757	0.5516	7.49869E-001	1.09562E-008	0.00000E+000	7.50000E-001	8.00223E-005	4	..........a	-327.66
	2758	0.5518	7.39869E-001	1.09532E-008	0.00000E+000	7.40000E-001	8.00223E-005	4	..........a	-327.66
	2759	0.552	7.29869E-001	1.09442E-008	0.00000E+000	7.30000E-001	8.00223E-005	4	..........a	-327.66
	2760	0.5522	7.19869E-001	1.09242E-008	0.00000E+000	7.20000E-001	8.00223E-005	4	..........a	-327.66
	2761	0.5524	7.09870E-001	1.08932E-008	0.00000E+000	7.10000E-001	8.00223E-005	4	..........a	-327.66
	2762	0.5526	6.99969E-001	1.08522E-008	0.00000E+000	7.00000E-001	8.00223E-005	4	..........a	-327.66
	2763	0.5528	6.89969E-001	1.08102E-008	0.00000E+000	6.90000E-001	8.00223E-005	4	..........a	-327.66
	2764	0.553	6.79669E-001	1.07542E-008	0.00000E+000	6.80000E-001	8.00223E-005	4	..........a	-327.66
	2765	0.5532	6.69869E-001	1.06982E-008	0.00000E+000	6.70000E-001	8.00223E-005	4	..........a	-327.66
	2766	0.5534	6.60269E-001	1.06352E-008	0.00000E+000	6.60000E-001	8.00223E-005	4	..........a	-327.66
	2767	0.5536	6.49769E-001	1.05662E-008	0.00000E+000	6.50000E-001	8.00223E-005	4	..........a	-327.66
	2768	0.5538	6.39870E-001	1.05002E-008	0.00000E+000	6.40000E-001	8.00223E-005	4	..........a	-327.66
	2769	0.554	6.29969E-001	1.04202E-008	0.00000E+000	6.30000E-001	8.00223E-005	4	..........a	-327.66
	2770	0.5542	6.19769E-001	1.03402E-008	0.00000E+000	6.20000E-001	8.00223E-005	4	..........a	-327.66
	2771	0.5544	6.09869E-001	1.02592E-008	0.00000E+000	6.10000E-001	8.00223E-005	4	..........a	-327.66
	2772	0.5546	5.99970E-001	1.01742E-008	0.00000E+000	6.00000E-001	8.00223E-005	4	..........a	-327.66
	2773	0.5548	5.89969E-001	1.00792E-008	0.00000E+000	5.90000E-001	8.00223E-005	4	..........a	-327.66
	2774	0.555	5.80069E-001	9.98817E-009	0.00000E+000	5.80000E-001	8.00223E-005	4	..........a	-327.66
	2775	0.5552	5.69869E-001	9.89117E-009	0.00000E+000	5.70000E-001	-2.19978E-004	4	..........a	-327.66
	2776	0.5554	5.59969E-001	9.79016E-009	0.00000E+000	5.60000E-001	8.00223E-005	4	..........a	-327.66
	2777	0.5556	5.49869E-001	9.69116E-009	0.00000E+000	5.50000E-001	8.00223E-005	4	..........a	-327.66
	2778	0.5558	5.39970E-001	9.58316E-009	0.00000E+000	5.40000E-001	8.00223E-005	4	..........a	-327.66
	2779	0.556	5.29819E-001	9.47315E-009	0.00000E+000	5.30000E-001	8.00223E-005	4	..........a	-327.66
	2780	0.5562	5.19719E-001	9.36715E-009	0.00000E+000	5.20000E-001	8.00223E-005	4	..........a	-327.66
	2781	0.5564	5.09870E-001	9.24614E-009	0.00000E+000	5.10000E-001	8.00223E-005	4	..........a	-327.66
	2782	0.5566	4.99770E-001	9.13314E-009	0.00000E+000	5.00000E-001	8.00223E-005	4	..........a	-327.66
	2783	0.5568	4.89770E-001	9.01013E-009	0.00000E+000	4.90000E-001	8.00223E-005	4	..........a	-327.66
	2784	0.557	4.79820E-001	8.88213E-009	0.00000E+000	4.80000E-001	8.00223E-005	4	..........a	-327.66
	2785	0.5572	4.69970E-001	8.75812E-009	0.00000E+000	4.70000E-001	8.00223E-005	4	..........a	-327.66
	2786	0.5574	4.60070E-001	8.62512E-009	0.00000E+000	4.60000E-001	8.00223E-005	4	..........a	-327.66
	2787	0.5576	4.50070E-001	8.49211E-009	0.00000E+000	4.50000E-001	8.00223E-005	4	..........a	-327.66
	2788	0.5578	4.39870E-001	8.35011E-009	0.00000E+000	4.40000E-001	8.00223E-005	4	..........a	-327.66
	2789	0.558	4.29870E-001	8.21010E-009	0.00000E+000	4.30000E-001	8.00223E-005	4	..........a	-327.66
	2790	0.5582	4.20070E-001	8.06410E-009	0.00000E+000	4.20000E-001	8.00223E-005	4	..........a	-327.66
	2791	0.5584	4.10070E-001	7.91209E-009	0.00000E+000	4.10000E-001	8.00223E-005	4	..........a	-327.66
	2792	0.5586	3.99970E-001	7.76509E-009	0.00000E+000	4.00000E-001	8.00223E-005	4	..........a	-327.66
	2793	0.5588	3.89970E-001	7.60908E-009	0.00000E+000	3.90000E-001	8.00223E-005	4	..........a	-327.66
	2794	0.559	3.80020E-001	7.44107E-009	0.00000E+000	3.80000E-001	8.00223E-005	4	..........a	-327.66
	2795	0.5592	3.69770E-001	7.27007E-009	0.00000E+000	3.70000E-001	8.00223E-005	4	..........a	-327.66
	2796	0.5594	3.59970E-001	7.10506E-009	0.00000E+000	3.60000E-001	8.00223E-005	4	..........a	-327.66
	2797	0.5596	3.49920E-001	6.93505E-009	0.00000E+000	3.50000E-001	8.00223E-005	4	..........a	-327.66
	2798	0.5598	3.40070E-001	6.75505E-009	0.00000E+000	3.40000E-001	8.00223E-005	4	..........a	-327.66
	2799	0.56	3.29970E-001	6.57104E-009	0.00000E+000	3.30000E-001	-2.19978E-004	4	..........a	-327.66
	2800	0.5602	3.19970E-001	6.38503E-009	0.00000E+000	3.20000E-001	8.00223E-005	4	..........a	-327.66