File: example_project/raw_outputs/20240321_ZM_GM0016_HL03_E10_CV50.DTA
EXPLAIN
TAG	CV
TITLE	LABEL	Cyclic Voltammetry	Test &Identifier
DATE	LABEL	3/21/2024	Date
TIME	LABEL	18:41:03	Time
NOTES	NOTES	1	&Notes...

PSTAT	PSTAT	REF600P-43058	Potentiostat
VINIT	POTEN	0.00000E+000	T	Initial &E (V)
VLIMIT1	POTEN	-6.00000E-001	F	Scan Limit &1 (V)
VLIMIT2	POTEN	8.00000E-001	F	Scan Limit &2 (V)
VFINAL	POTEN	0.00000E+000	T	Final &E (V)
SCANRATE	QUANT	4.99999E+001	&Scan Rate (mV/s)
STEPSIZE	QUANT	1.00000E+001	St&ep Size (mV)
CYCLES	IQUANT	4	C&ycles (#)
IMODE	SELECTOR	1	I/E Range &Mode
IRANGE	QUANT	1.00000E-005	&Max Current (mA)
AREA	QUANT	1.00000E+000	Electrode &Area (cm^2)
ELECTRODETYPE	SELECTOR	0	Electrode Type
STRIPPING	TOGGLE	F	Used for Stripping
POLARITY	TOGGLE	F	Signal Polarity
CONDIT	TWOPARAM	F	1.50000E+001	0.00000E+000	Conditionin&g	Time(s)	E(V)
DELAY	TWOPARAM	T	1.00000E+001	0.00000E+000	Init. De&lay	Time(s)	Stab.(mV/s)
EQDELAY	QUANT	1.00000E+001	Equil. &Time (s)
IRCOMP	SELECTOR	0	IRCom&p
PFCOR	QUANT	5.00000E+001	PF Corr. (ohm)
SAMPLINGMODE	SELECTOR	1	Sampling &Mode
OCVCURVE	TABLE	39
	Pt	T	Vf	Vm	Ach	Over	Temp
	#	s	V vs. Ref.	V	V	bits	deg C
	0	0.258333	3.36802E-001	3.36802E-001	2.51956E-004	..........a	-327.66
	1	0.516667	3.36806E-001	3.36987E-001	2.66422E-004	..........a	-327.66
	2	0.775	3.36831E-001	3.37357E-001	2.50556E-004	..........a	-327.66
	3	1.03333	3.36916E-001	3.37760E-001	2.56022E-004	..........a	-327.66
	4	1.29167	3.37098E-001	3.38205E-001	2.54689E-004	..........a	-327.66
	5	1.55	3.37382E-001	3.38561E-001	2.44422E-004	..........a	-327.66
	6	1.80833	3.37739E-001	3.38927E-001	2.43156E-004	..........a	-327.66
	7	2.06667	3.38129E-001	3.39368E-001	2.65489E-004	..........a	-327.66
	8	2.325	3.38527E-001	3.39802E-001	2.45222E-004	..........a	-327.66
	9	2.58333	3.38928E-001	3.40155E-001	2.58089E-004	..........a	-327.66
	10	2.84167	3.39333E-001	3.40532E-001	2.64689E-004	..........a	-327.66
	11	3.1	3.39734E-001	3.40950E-001	2.61289E-004	..........a	-327.66
	12	3.35833	3.40130E-001	3.41413E-001	2.55089E-004	..........a	-327.66
	13	3.61667	3.40528E-001	3.41772E-001	2.64956E-004	..........a	-327.66
	14	3.875	3.40934E-001	3.42139E-001	2.53556E-004	..........a	-327.66
	15	4.13333	3.41338E-001	3.42548E-001	2.60956E-004	..........a	-327.66
	16	4.39167	3.41736E-001	3.42978E-001	2.51822E-004	..........a	-327.66
	17	4.65	3.42130E-001	3.43342E-001	2.64356E-004	..........a	-327.66
	18	4.90833	3.42526E-001	3.43725E-001	2.57289E-004	..........a	-327.66
	19	5.16667	3.42921E-001	3.44126E-001	2.64356E-004	..........a	-327.66
	20	5.425	3.43314E-001	3.44511E-001	2.48756E-004	..........a	-327.66
	21	5.68333	3.43704E-001	3.44922E-001	2.63822E-004	..........a	-327.66
	22	5.94167	3.44094E-001	3.45255E-001	2.59422E-004	..........a	-327.66
	23	6.2	3.44482E-001	3.45642E-001	2.51222E-004	..........a	-327.66
	24	6.45833	3.44867E-001	3.46160E-001	2.56956E-004	..........a	-327.66
	25	6.71667	3.45254E-001	3.46402E-001	2.73022E-004	..........a	-327.66
	26	6.975	3.45645E-001	3.46673E-001	2.52756E-004	..........a	-327.66
	27	7.23333	3.46018E-001	3.47028E-001	2.64222E-004	..........a	-327.66
	28	7.49167	3.46359E-001	3.47160E-001	2.27089E-004	..........a	-327.66
	29	7.75	3.46671E-001	3.47902E-001	2.57889E-004	..........a	-327.66
	30	8.00833	3.46989E-001	3.48223E-001	2.57222E-004	..........a	-327.66
	31	8.26667	3.47350E-001	3.48594E-001	2.57622E-004	..........a	-327.66
	32	8.525	3.47752E-001	3.48981E-001	2.80689E-004	..........a	-327.66
	33	8.78333	3.48166E-001	3.49532E-001	2.67422E-004	..........a	-327.66
	34	9.04167	3.48578E-001	3.49664E-001	2.66956E-004	..........a	-327.66
	35	9.3	3.48978E-001	3.49975E-001	2.36689E-004	..........a	-327.66
	36	9.5583	3.49347E-001	3.50417E-001	2.57956E-004	..........a	-327.66
	37	9.8167	3.49686E-001	3.50752E-001	2.51756E-004	..........a	-327.66
	38	10.075	3.50023E-001	3.51230E-001	2.62956E-004	..........a	-327.66
EOC	QUANT	0.3500232	Open Circuit (V)
PSTATMODEL	IQUANT	7	Pstat Model
PSTATSECTION	LABEL	REF600P-43058	Pstat Section
PSTATSERIALNO	LABEL	43058	Pstat Serial Number
CTRLMODE	IQUANT	1	Control Mode
ELECTROMETER	IQUANT	0	RE=0 or CS=1
IESTAB	IQUANT	2	I/E Stability
CASPEED	IQUANT	4	Control Amp Speed
CONVENTION	IQUANT	1	Current Convention
ICHRANGE	IQUANT	2	Ich Range
ICHRANGEMODE	TOGGLE	F	Ich Auto Range
ICHOFFSETENABLE	TOGGLE	F	Ich Offset Enable
ICHOFFSET	QUANT	0	Ich Offset (V)
ICHFILTER	IQUANT	2	Ich Filter
VCHRANGE	IQUANT	2	Vch Range
VCHRANGEMODE	TOGGLE	F	Vch Auto Range
VCHOFFSETENABLE	TOGGLE	F	Vch Offset Enable
VCHOFFSET	QUANT	0	Vch Offset (V)
VCHFILTER	IQUANT	2	Vch Filter
ACHRANGE	IQUANT	2	Ach Range
ACHOFFSETENABLE	TOGGLE	F	Ach Offset Enable
ACHOFFSET	QUANT	0	Ach Offset (V)
ACHFILTER	IQUANT	1	Ach Filter
IERANGELOWERLIMIT	IQUANT	1	I/E Range Lower Limit
IERANGEMODE	TOGGLE	F	I/E AutoRange
IERANGE	IQUANT	4	I/E Range
POSFEEDENABLE	TOGGLE	F	Positive Feedback IR Comp
POSFEEDRESISTANCE	QUANT	0	Positive Feedback Resistance (ohm)
ACHSELECT	IQUANT	4	Ach Select
SENSECABLEID	IQUANT	7	Sense Cable ID
PWRCABLEID	IQUANT	7	Power Cable ID
DCCALDATE	LABEL	12/18/2023	DC Calibration Date
ACCALDATE	LABEL	12/18/2023	AC Calibration Date
THERMOSELECT	IQUANT	1	Thermo Select
FRAMEWORKVERSION	LABEL	7.8.4	Framework Version
INSTRUMENTVERSION	LABEL	4.42	Instrument Version
CURVE1	TABLE
	Pt	T	Vf	Im	Vu	Sig	Ach	IERange	Over	Temp
	#	s	V vs. Ref.	A	V	V	V	#	bits	deg C
	0	0.2	3.49923E-001	1.40103E-011	0.00000E+000	3.50000E-001	1.00892E-003	4	..........a	-327.66
	3	0.8	3.20018E-001	-3.74096E-011	0.00000E+000	3.20000E-001	1.04152E-003	4	..........a	-327.66
	6	1.4	2.89991E-001	-4.84511E-011	0.00000E+000	2.90000E-001	1.00592E-003	4	..........a	-327.66
	9	2	2.60038E-001	-5.47993E-011	0.00000E+000	2.60000E-001	1.05582E-003	4	..........a	-327.66
	12	2.6	2.29953E-001	-6.03715E-011	0.00000E+000	2.30000E-001	1.02462E-003	4	..........a	-327.66
	15	3.2	1.99996E-001	-6.63417E-011	0.00000E+000	2.00000E-001	1.03792E-003	4	..........a	-327.66
	18	3.8	1.70114E-001	-6.96649E-011	0.00000E+000	1.70000E-001	1.00332E-003	4	..........a	-327.66
	21	4.4	1.40101E-001	-7.16210E-011	0.00000E+000	1.40000E-001	1.03242E-003	4	..........a	-327.66
	24	5	1.10075E-001	-7.34640E-011	0.00000E+000	1.10000E-001	1.04372E-003	4	..........a	-327.66
	27	5.6	8.00174E-002	-7.50081E-011	0.00000E+000	8.00000E-002	1.04682E-003	4	..........a	-327.66
	30	6.2	5.00495E-002	-7.80192E-011	0.00000E+000	5.00000E-002	9.94322E-004	4	..........a	-327.66
	33	6.8	2.00603E-002	-8.01983E-011	0.00000E+000	2.00000E-002	1.03032E-003	4	..........a	-327.66
	36	7.4	-1.00193E-002	-8.33664E-011	0.00000E+000	-1.00000E-002	1.01512E-003	4	..........a	-327.66
	39	8	-3.99279E-002	-8.81036E-011	0.00000E+000	-4.00000E-002	1.00432E-003	4	..........a	-327.66
	42	8.6	-6.99561E-002	-9.55499E-011	0.00000E+000	-7.00000E-002	1.02642E-003	4	..........a	-327.66
	45	9.2	-9.99110E-002	-1.04318E-010	0.00000E+000	-1.00000E-001	1.02152E-003	4	..........a	-327.66
	48	9.8	-1.30010E-001	-1.15807E-010	0.00000E+000	-1.30000E-001	1.02542E-003	4	..........a	-327.66
	51	10.4	-1.60013E-001	-1.28806E-010	0.00000E+000	-1.60000E-001	1.03242E-003	4	..........a	-327.66
	54	11	-1.89987E-001	-1.44501E-010	0.00000E+000	-1.90000E-001	1.04122E-003	4	..........a	-327.66
	57	11.6	-2.19892E-001	-1.63899E-010	0.00000E+000	-2.20000E-001	1.02562E-003	4	..........a	-327.66
	60	12.2	-2.49961E-001	-1.85397E-010	0.00000E+000	-2.50000E-001	1.03952E-003	4	..........a	-327.66
	63	12.8	-2.79979E-001	-2.12016E-010	0.00000E+000	-2.80000E-001	1.04812E-003	4	..........a	-327.66
	66	13.4	-3.09896E-001	-2.40779E-010	0.00000E+000	-3.10000E-001	1.02232E-003	4	..........a	-327.66
	69	14	-3.39920E-001	-2.76836E-010	0.00000E+000	-3.40000E-001	1.02772E-003	4	..........a	-327.66
	72	14.6	-3.69863E-001	-3.13850E-010	0.00000E+000	-3.70000E-001	1.02032E-003	4	..........a	-327.66
	75	15.2	-3.99859E-001	-3.49802E-010	0.00000E+000	-4.00000E-001	1.02622E-003	4	..........a	-327.66
	78	15.8	-4.29844E-001	-3.96724E-010	0.00000E+000	-4.30000E-001	1.00522E-003	4	..........a	-327.66
	81	16.4	-4.59846E-001	-4.47333E-010	0.00000E+000	-4.60000E-001	1.02402E-003	4	..........a	-327.66
	84	17	-4.89872E-001	-5.03356E-010	0.00000E+000	-4.90000E-001	1.02452E-003	4	..........a	-327.66
	87	17.6	-5.19871E-001	-5.69414E-010	0.00000E+000	-5.20000E-001	1.00162E-003	4	..........a	-327.66
	90	18.2	-5.49892E-001	-6.47818E-010	0.00000E+000	-5.50000E-001	1.02772E-003	4	..........a	-327.66
	93	18.8	-5.79863E-001	-7.47957E-010	0.00000E+000	-5.80000E-001	1.00642E-003	4	..........a	-327.66
	96	19.4	-5.89869E-001	-5.88273E-010	0.00000E+000	-5.90000E-001	1.03312E-003	4	..........a	-327.66
	99	20	-5.59915E-001	-2.74473E-010	0.00000E+000	-5.60000E-001	1.00502E-003	4	..........a	-327.66
	102	20.6	-5.29908E-001	-1.37022E-010	0.00000E+000	-5.30000E-001	1.04592E-003	4	..........a	-327.66
	105	21.2	-4.99849E-001	-5.49093E-011	0.00000E+000	-5.00000E-001	1.00222E-003	4	..........a	-327.66
	108	21.8	-4.69779E-001	-4.82026E-014	0.00000E+000	-4.70000E-001	1.01942E-003	4	..........a	-327.66
	111	22.4	-4.39864E-001	4.15344E-011	0.00000E+000	-4.40000E-001	1.02632E-003	4	..........a	-327.66
	114	23	-4.09923E-001	7.11175E-011	0.00000E+000	-4.10000E-001	9.93622E-004	4	..........a	-327.66
	117	23.6	-3.79896E-001	9.20463E-011	0.00000E+000	-3.80000E-001	1.01812E-003	4	..........a	-327.66
	120	24.2	-3.49893E-001	1.08185E-010	0.00000E+000	-3.50000E-001	9.98222E-004	4	..........a	-327.66
	123	24.8	-3.19908E-001	1.20314E-010	0.00000E+000	-3.20000E-001	1.04032E-003	4	..........a	-327.66
	126	25.4	-2.90021E-001	1.28475E-010	0.00000E+000	-2.90000E-001	1.03862E-003	4	..........a	-327.66
	129	26	-2.59911E-001	1.31584E-010	0.00000E+000	-2.60000E-001	1.03002E-003	4	..........a	-327.66
	132	26.6	-2.29928E-001	1.32655E-010	0.00000E+000	-2.30000E-001	1.03212E-003	4	..........a	-327.66
	135	27.2	-1.99929E-001	1.32432E-010	0.00000E+000	-2.00000E-001	1.01862E-003	4	..........a	-327.66
	138	27.8	-1.69953E-001	1.30594E-010	0.00000E+000	-1.70000E-001	1.03572E-003	4	..........a	-327.66
	141	28.4	-1.39955E-001	1.27429E-010	0.00000E+000	-1.40000E-001	1.00962E-003	4	..........a	-327.66
	144	29	-1.10021E-001	1.28070E-010	0.00000E+000	-1.10000E-001	1.00072E-003	4	..........a	-327.66
	147	29.6	-7.99918E-002	1.24468E-010	0.00000E+000	-8.00000E-002	1.03502E-003	4	..........a	-327.66
	150	30.2	-4.99942E-002	1.23897E-010	0.00000E+000	-5.00000E-002	1.02562E-003	4	..........a	-327.66
	153	30.8	-1.98985E-002	1.26653E-010	0.00000E+000	-2.00000E-002	1.01182E-003	4	..........a	-327.66
	156	31.4	1.01084E-002	1.23555E-010	0.00000E+000	1.00000E-002	1.02302E-003	4	..........a	-327.66
	159	32	3.97862E-002	1.23779E-010	0.00000E+000	4.00000E-002	1.03482E-003	4	..........a	-327.66
	162	32.6	6.99268E-002	1.28290E-010	0.00000E+000	7.00000E-002	1.02642E-003	4	..........a	-327.66
	165	33.2	1.00028E-001	1.31033E-010	0.00000E+000	1.00000E-001	1.02922E-003	4	..........a	-327.66
	168	33.8	1.30124E-001	1.35928E-010	0.00000E+000	1.30000E-001	1.00112E-003	4	..........a	-327.66
	171	34.4	1.60059E-001	1.41746E-010	0.00000E+000	1.60000E-001	1.01812E-003	4	..........a	-327.66
	174	35	1.90046E-001	1.53895E-010	0.00000E+000	1.90000E-001	1.00552E-003	4	..........a	-327.66
	177	35.6	2.19861E-001	1.59645E-010	0.00000E+000	2.20000E-001	1.02072E-003	4	..........a	-327.66
	180	36.2	2.50081E-001	1.69847E-010	0.00000E+000	2.50000E-001	1.04442E-003	4	..........a	-327.66
	183	36.8	2.79979E-001	1.84196E-010	0.00000E+000	2.80000E-001	1.04732E-003	4	..........a	-327.66
	186	37.4	3.09990E-001	1.96057E-010	0.00000E+000	3.10000E-001	1.00212E-003	4	..........a	-327.66
	189	38	3.40074E-001	2.11802E-010	0.00000E+000	3.40000E-001	1.04082E-003	4	..........a	-327.66
	192	38.6	3.70024E-001	2.31060E-010	0.00000E+000	3.70000E-001	1.00982E-003	4	..........a	-327.66
	195	39.2	3.99929E-001	2.55084E-010	0.00000E+000	4.00000E-001	1.04622E-003	4	..........a	-327.66
	198	39.8	4.29946E-001	2.83033E-010	0.00000E+000	4.30000E-001	1.02862E-003	4	..........a	-327.66
	201	40.4	4.59985E-001	3.15633E-010	0.00000E+000	4.60000E-001	1.04772E-003	4	..........a	-327.66
	204	41	4.89968E-001	3.50644E-010	0.00000E+000	4.90000E-001	1.03052E-003	4	..........a	-327.66
	207	41.6	5.19942E-001	3.87414E-010	0.00000E+000	5.20000E-001	1.03882E-003	4	..........a	-327.66
	210	42.2	5.49972E-001	4.24973E-010	0.00000E+000	5.50000E-001	1.00292E-003	4	..........a	-327.66
	213	42.8	5.80029E-001	4.63447E-010	0.00000E+000	5.80000E-001	1.03072E-003	4	..........a	-327.66
	216	43.4	6.09958E-001	5.01245E-010	0.00000E+000	6.10000E-001	1.01832E-003	4	..........a	-327.66
	219	44	6.39889E-001	5.40608E-010	0.00000E+000	6.40000E-001	1.00682E-003	4	..........a	-327.66
	222	44.6	6.69920E-001	5.78523E-010	0.00000E+000	6.70000E-001	1.02372E-003	4	..........a	-327.66
	225	45.2	6.99999E-001	6.18491E-010	0.00000E+000	7.00000E-001	1.04462E-003	4	..........a	-327.66
	228	45.8	7.29946E-001	6.68650E-010	0.00000E+000	7.30000E-001	1.01332E-003	4	..........a	-327.66
	231	46.4	7.59968E-001	7.21228E-010	0.00000E+000	7.60000E-001	1.02482E-003	4	..........a	-327.66
	234	47	7.89896E-001	7.90777E-010	0.00000E+000	7.90000E-001	1.03342E-003	4	..........a	-327.66
	235	47.2	7.99873E-001	8.17152E-010	0.00000E+000	8.00000E-001	1.00762E-003	4	..........a	-327.66
CURVE2	TABLE
	Pt	T	Vf	Im	Vu	Sig	Ach	IERange	Over	Temp
	#	s	V vs. Ref.	A	V	V	V	#	bits	deg C
	236	47.4	7.89901E-001	5.95094E-010	0.00000E+000	7.90000E-001	9.88922E-004	4	..........a	-327.66
	239	48	7.59882E-001	2.57807E-010	0.00000E+000	7.60000E-001	1.03292E-003	4	..........a	-327.66
	242	48.6	7.30096E-001	1.05939E-010	0.00000E+000	7.30000E-001	1.00192E-003	4	..........a	-327.66
	245	49.2	6.99988E-001	2.94389E-011	0.00000E+000	7.00000E-001	1.02932E-003	4	..........a	-327.66
	248	49.8	6.69931E-001	-2.07280E-011	0.00000E+000	6.70000E-001	1.01252E-003	4	..........a	-327.66
	251	50.4	6.39944E-001	-5.12282E-011	0.00000E+000	6.40000E-001	1.00782E-003	4	..........a	-327.66
	254	51	6.09970E-001	-7.28390E-011	0.00000E+000	6.10000E-001	1.00862E-003	4	..........a	-327.66
	257	51.6	5.79990E-001	-9.07377E-011	0.00000E+000	5.80000E-001	1.03582E-003	4	..........a	-327.66
	260	52.2	5.49979E-001	-1.02779E-010	0.00000E+000	5.50000E-001	1.02782E-003	4	..........a	-327.66
	263	52.8	5.19977E-001	-1.14223E-010	0.00000E+000	5.20000E-001	1.03512E-003	4	..........a	-327.66
	266	53.4	4.89992E-001	-1.21270E-010	0.00000E+000	4.90000E-001	1.02962E-003	4	..........a	-327.66
	269	54	4.60021E-001	-1.26696E-010	0.00000E+000	4.60000E-001	1.03102E-003	4	..........a	-327.66
	272	54.6	4.29976E-001	-1.31897E-010	0.00000E+000	4.30000E-001	1.00702E-003	4	..........a	-327.66
	275	55.2	3.99937E-001	-1.35408E-010	0.00000E+000	4.00000E-001	1.02342E-003	4	..........a	-327.66
	278	55.8	3.70016E-001	-1.36704E-010	0.00000E+000	3.70000E-001	1.02942E-003	4	..........a	-327.66
	281	56.4	3.40050E-001	-1.40238E-010	0.00000E+000	3.40000E-001	1.02242E-003	4	..........a	-327.66
	284	57	3.09975E-001	-1.42232E-010	0.00000E+000	3.10000E-001	1.00382E-003	4	..........a	-327.66
	287	57.6	2.79958E-001	-1.43893E-010	0.00000E+000	2.80000E-001	1.05222E-003	4	..........a	-327.66
	290	58.2	2.50020E-001	-1.43973E-010	0.00000E+000	2.50000E-001	9.99722E-004	4	..........a	-327.66
	293	58.8	2.19989E-001	-1.45216E-010	0.00000E+000	2.20000E-001	1.02392E-003	4	..........a	-327.66
	296	59.4	1.90022E-001	-1.44322E-010	0.00000E+000	1.90000E-001	1.00142E-003	4	..........a	-327.66
	299	60	1.59959E-001	-1.42334E-010	0.00000E+000	1.60000E-001	1.02332E-003	4	..........a	-327.66
	302	60.6	1.30066E-001	-1.39559E-010	0.00000E+000	1.30000E-001	1.02202E-003	4	..........a	-327.66
	305	61.2	9.99944E-002	-1.39155E-010	0.00000E+000	1.00000E-001	1.03012E-003	4	..........a	-327.66
	308	61.8	6.99704E-002	-1.38100E-010	0.00000E+000	7.00000E-002	1.02482E-003	4	..........a	-327.66
	311	62.4	3.99270E-002	-1.40787E-010	0.00000E+000	4.00000E-002	1.01032E-003	4	..........a	-327.66
	314	63	1.00645E-002	-1.45482E-010	0.00000E+000	1.00000E-002	1.02302E-003	4	..........a	-327.66
	317	63.6	-1.99367E-002	-1.51644E-010	0.00000E+000	-2.00000E-002	1.02082E-003	4	..........a	-327.66
	320	64.2	-5.00129E-002	-1.62008E-010	0.00000E+000	-5.00000E-002	9.87822E-004	4	..........a	-327.66
	323	64.8	-7.99645E-002	-1.73325E-010	0.00000E+000	-8.00000E-002	1.02432E-003	4	..........a	-327.66
	326	65.4	-1.09910E-001	-1.87973E-010	0.00000E+000	-1.10000E-001	1.00992E-003	4	..........a	-327.66
	329	66	-1.39973E-001	-2.05208E-010	0.00000E+000	-1.40000E-001	1.00422E-003	4	..........a	-327.66
	332	66.6	-1.69967E-001	-2.26160E-010	0.00000E+000	-1.70000E-001	1.01472E-003	4	..........a	-327.66
	335	67.2	-1.99964E-001	-2.49163E-010	0.00000E+000	-2.00000E-001	1.03732E-003	4	..........a	-327.66
	338	67.8	-2.29925E-001	-2.77608E-010	0.00000E+000	-2.30000E-001	1.00292E-003	4	..........a	-327.66
	341	68.4	-2.59846E-001	-3.02259E-010	0.00000E+000	-2.60000E-001	1.01312E-003	4	..........a	-327.66
	344	69	-2.89896E-001	-3.32453E-010	0.00000E+000	-2.90000E-001	1.00782E-003	4	..........a	-327.66
	347	69.6	-3.19814E-001	-3.56474E-010	0.00000E+000	-3.20000E-001	1.00952E-003	4	..........a	-327.66
	350	70.2	-3.49876E-001	-3.94931E-010	0.00000E+000	-3.50000E-001	1.03142E-003	4	..........a	-327.66
	353	70.8	-3.79859E-001	-4.28890E-010	0.00000E+000	-3.80000E-001	1.01132E-003	4	..........a	-327.66
	356	71.4	-4.09848E-001	-4.65728E-010	0.00000E+000	-4.10000E-001	1.02752E-003	4	..........a	-327.66
	359	72	-4.39882E-001	-5.06888E-010	0.00000E+000	-4.40000E-001	1.01642E-003	4	..........a	-327.66
[...]
	955	191.2	-3.99897E-001	1.92485E-011	0.00000E+000	-4.00000E-001	1.02662E-003	4	..........a	-327.66
	958	191.8	-3.69946E-001	5.26438E-011	0.00000E+000	-3.70000E-001	1.02812E-003	4	..........a	-327.66
	961	192.4	-3.39916E-001	8.11149E-011	0.00000E+000	-3.40000E-001	1.00972E-003	4	..........a	-327.66
	964	193	-3.09876E-001	1.02528E-010	0.00000E+000	-3.10000E-001	1.00632E-003	4	..........a	-327.66
	967	193.6	-2.79997E-001	1.22207E-010	0.00000E+000	-2.80000E-001	9.86522E-004	4	..........a	-327.66
	970	194.2	-2.49926E-001	1.35964E-010	0.00000E+000	-2.50000E-001	1.02452E-003	4	..........a	-327.66
	973	194.8	-2.19901E-001	1.47102E-010	0.00000E+000	-2.20000E-001	1.00782E-003	4	..........a	-327.66
	976	195.4	-1.90110E-001	1.51434E-010	0.00000E+000	-1.90000E-001	9.91522E-004	4	..........a	-327.66
	979	196	-1.59946E-001	1.52164E-010	0.00000E+000	-1.60000E-001	1.02132E-003	4	..........a	-327.66
	982	196.6	-1.30074E-001	1.55296E-010	0.00000E+000	-1.30000E-001	9.90522E-004	4	..........a	-327.66
	985	197.2	-9.99061E-002	1.51976E-010	0.00000E+000	-1.00000E-001	9.99622E-004	4	..........a	-327.66
	988	197.8	-6.99242E-002	1.50194E-010	0.00000E+000	-7.00000E-002	1.01982E-003	4	..........a	-327.66
	991	198.4	-3.99371E-002	1.54860E-010	0.00000E+000	-4.00000E-002	1.03632E-003	4	..........a	-327.66
	994	199	-9.96031E-003	1.48945E-010	0.00000E+000	-1.00000E-002	1.02032E-003	4	..........a	-327.66
	997	199.6	2.00466E-002	1.51656E-010	0.00000E+000	2.00000E-002	1.00732E-003	4	..........a	-327.66
	1000	200.2	5.00438E-002	1.50240E-010	0.00000E+000	5.00000E-002	1.00662E-003	4	..........a	-327.66
	1003	200.8	8.00834E-002	1.51045E-010	0.00000E+000	8.00000E-002	9.93722E-004	4	..........a	-327.66
	1006	201.4	1.10059E-001	1.57771E-010	0.00000E+000	1.10000E-001	1.00582E-003	4	..........a	-327.66
	1009	202	1.40119E-001	1.62101E-010	0.00000E+000	1.40000E-001	1.04432E-003	4	..........a	-327.66
	1012	202.6	1.70171E-001	1.67015E-010	0.00000E+000	1.70000E-001	1.01292E-003	4	..........a	-327.66
	1015	203.2	2.00044E-001	1.77965E-010	0.00000E+000	2.00000E-001	1.02532E-003	4	..........a	-327.66
	1018	203.8	2.29928E-001	1.92049E-010	0.00000E+000	2.30000E-001	1.00702E-003	4	..........a	-327.66
	1021	204.4	2.60040E-001	1.99328E-010	0.00000E+000	2.60000E-001	1.00852E-003	4	..........a	-327.66
	1024	205	2.90039E-001	2.08773E-010	0.00000E+000	2.90000E-001	1.01372E-003	4	..........a	-327.66
	1027	205.6	3.20024E-001	2.15111E-010	0.00000E+000	3.20000E-001	1.01702E-003	4	..........a	-327.66
	1030	206.2	3.50020E-001	2.20200E-010	0.00000E+000	3.50000E-001	1.01852E-003	4	..........a	-327.66
	1033	206.8	3.80006E-001	2.24278E-010	0.00000E+000	3.80000E-001	1.02042E-003	4	..........a	-327.66
	1036	207.4	4.09995E-001	2.27890E-010	0.00000E+000	4.10000E-001	1.02032E-003	4	..........a	-327.66
	1039	208	4.39912E-001	2.32419E-010	0.00000E+000	4.40000E-001	1.03922E-003	4	..........a	-327.66
	1042	208.6	4.69961E-001	2.37945E-010	0.00000E+000	4.70000E-001	1.01392E-003	4	..........a	-327.66
	1045	209.2	5.00008E-001	2.44217E-010	0.00000E+000	5.00000E-001	1.02322E-003	4	..........a	-327.66
	1048	209.8	5.29981E-001	2.53263E-010	0.00000E+000	5.30000E-001	1.02722E-003	4	..........a	-327.66
	1051	210.4	5.59926E-001	2.64322E-010	0.00000E+000	5.60000E-001	1.01652E-003	4	..........a	-327.66
	1054	211	5.89924E-001	2.79152E-010	0.00000E+000	5.90000E-001	9.87222E-004	4	..........a	-327.66
	1057	211.6	6.19995E-001	3.00829E-010	0.00000E+000	6.20000E-001	1.00612E-003	4	..........a	-327.66
	1060	212.2	6.49928E-001	3.28174E-010	0.00000E+000	6.50000E-001	1.01512E-003	4	..........a	-327.66
	1063	212.8	6.79959E-001	3.65235E-010	0.00000E+000	6.80000E-001	1.00212E-003	4	..........a	-327.66
	1066	213.4	7.09911E-001	4.12567E-010	0.00000E+000	7.10000E-001	9.98922E-004	4	..........a	-327.66
	1069	214	7.40014E-001	4.72570E-010	0.00000E+000	7.40000E-001	1.01102E-003	4	..........a	-327.66
	1072	214.6	7.69928E-001	5.49153E-010	0.00000E+000	7.70000E-001	9.79722E-004	4	..........a	-327.66
	1075	215.2	7.99946E-001	6.47509E-010	0.00000E+000	8.00000E-001	1.00842E-003	4	..........a	-327.66
CURVE5	TABLE
	Pt	T	Vf	Im	Vu	Sig	Ach	IERange	Over	Temp
	#	s	V vs. Ref.	A	V	V	V	#	bits	deg C
	1076	215.4	7.89880E-001	4.30427E-010	0.00000E+000	7.90000E-001	1.02862E-003	4	..........a	-327.66
	1077	215.6	7.79983E-001	3.02883E-010	0.00000E+000	7.80000E-001	1.00802E-003	4	..........a	-327.66
	1078	215.8	7.69978E-001	2.17809E-010	0.00000E+000	7.70000E-001	1.02162E-003	4	..........a	-327.66
	1079	216	7.59944E-001	1.57024E-010	0.00000E+000	7.60000E-001	1.01162E-003	4	..........a	-327.66
	1080	216.2	7.49935E-001	1.14647E-010	0.00000E+000	7.50000E-001	1.00042E-003	4	..........a	-327.66
	1081	216.4	7.40008E-001	8.03219E-011	0.00000E+000	7.40000E-001	1.00992E-003	4	..........a	-327.66
	1082	216.6	7.29916E-001	5.46529E-011	0.00000E+000	7.30000E-001	1.00852E-003	4	..........a	-327.66
	1083	216.8	7.19904E-001	3.30461E-011	0.00000E+000	7.20000E-001	1.03442E-003	4	..........a	-327.66
	1084	217	7.09888E-001	1.68354E-011	0.00000E+000	7.10000E-001	1.02412E-003	4	..........a	-327.66
	1085	217.2	6.99981E-001	2.84591E-012	0.00000E+000	7.00000E-001	1.02022E-003	4	..........a	-327.66
	1086	217.4	6.89907E-001	-8.22152E-012	0.00000E+000	6.90000E-001	1.01602E-003	4	..........a	-327.66
	1087	217.6	6.79803E-001	-1.95130E-011	0.00000E+000	6.80000E-001	9.96022E-004	4	..........a	-327.66
	1088	217.8	6.69930E-001	-2.93213E-011	0.00000E+000	6.70000E-001	1.02152E-003	4	..........a	-327.66
	1089	218	6.60013E-001	-3.68626E-011	0.00000E+000	6.60000E-001	1.00832E-003	4	..........a	-327.66
	1090	218.2	6.49928E-001	-4.24218E-011	0.00000E+000	6.50000E-001	1.01982E-003	4	..........a	-327.66
	1091	218.4	6.39940E-001	-4.97811E-011	0.00000E+000	6.40000E-001	1.01032E-003	4	..........a	-327.66
	1092	218.6	6.29942E-001	-5.48633E-011	0.00000E+000	6.30000E-001	9.97922E-004	4	..........a	-327.66
	1093	218.8	6.20017E-001	-5.91725E-011	0.00000E+000	6.20000E-001	1.03042E-003	4	..........a	-327.66
	1094	219	6.09966E-001	-6.59637E-011	0.00000E+000	6.10000E-001	1.02052E-003	4	..........a	-327.66
	1095	219.2	5.99949E-001	-6.95599E-011	0.00000E+000	6.00000E-001	1.01422E-003	4	..........a	-327.66
	1096	219.4	5.89952E-001	-7.32970E-011	0.00000E+000	5.90000E-001	1.01742E-003	4	..........a	-327.66
	1097	219.6	5.80030E-001	-7.67252E-011	0.00000E+000	5.80000E-001	1.03042E-003	4	..........a	-327.66
	1098	219.8	5.69959E-001	-8.10703E-011	0.00000E+000	5.70000E-001	9.98222E-004	4	..........a	-327.66
	1099	220	5.59968E-001	-8.35464E-011	0.00000E+000	5.60000E-001	1.01062E-003	4	..........a	-327.66
	1100	220.2	5.49983E-001	-8.66915E-011	0.00000E+000	5.50000E-001	1.01062E-003	4	..........a	-327.66
	1101	220.4	5.40010E-001	-9.01987E-011	0.00000E+000	5.40000E-001	1.02622E-003	4	..........a	-327.66
	1102	220.6	5.30024E-001	-9.24748E-011	0.00000E+000	5.30000E-001	1.01312E-003	4	..........a	-327.66
	1103	220.8	5.19959E-001	-9.45658E-011	0.00000E+000	5.20000E-001	1.01612E-003	4	..........a	-327.66
	1104	221	5.09933E-001	-9.78400E-011	0.00000E+000	5.10000E-001	1.02402E-003	4	..........a	-327.66
	1105	221.2	5.00069E-001	-9.91200E-011	0.00000E+000	5.00000E-001	1.00392E-003	4	..........a	-327.66
	1106	221.4	4.89988E-001	-1.02614E-010	0.00000E+000	4.90000E-001	1.00032E-003	4	..........a	-327.66
	1107	221.6	4.79977E-001	-1.05012E-010	0.00000E+000	4.80000E-001	1.01572E-003	4	..........a	-327.66
	1108	221.8	4.69964E-001	-1.07138E-010	0.00000E+000	4.70000E-001	1.01512E-003	4	..........a	-327.66
	1109	222	4.60022E-001	-1.08914E-010	0.00000E+000	4.60000E-001	1.03042E-003	4	..........a	-327.66
	1110	222.2	4.49960E-001	-1.12327E-010	0.00000E+000	4.50000E-001	9.88522E-004	4	..........a	-327.66
	1111	222.4	4.39986E-001	-1.14420E-010	0.00000E+000	4.40000E-001	1.01352E-003	4	..........a	-327.66
	1112	222.6	4.29960E-001	-1.16132E-010	0.00000E+000	4.30000E-001	1.00682E-003	4	..........a	-327.66
	1113	222.8	4.20028E-001	-1.18333E-010	0.00000E+000	4.20000E-001	1.01482E-003	4	..........a	-327.66
	1114	223	4.09968E-001	-1.20273E-010	0.00000E+000	4.10000E-001	1.01252E-003	4	..........a	-327.66
	1115	223.2	4.00030E-001	-1.22398E-010	0.00000E+000	4.00000E-001	1.03082E-003	4	..........a	-327.66
	1116	223.4	3.89980E-001	-1.23913E-010	0.00000E+000	3.90000E-001	1.02982E-003	4	..........a	-327.66
	1117	223.6	3.80008E-001	-1.26909E-010	0.00000E+000	3.80000E-001	1.03132E-003	4	..........a	-327.66
	1118	223.8	3.70005E-001	-1.28770E-010	0.00000E+000	3.70000E-001	1.00822E-003	4	..........a	-327.66
	1119	224	3.59921E-001	-1.31240E-010	0.00000E+000	3.60000E-001	1.01632E-003	4	..........a	-327.66
	1120	224.2	3.49963E-001	-1.32532E-010	0.00000E+000	3.50000E-001	1.00602E-003	4	..........a	-327.66