File: example_project/raw_outputs/20240509_ZZE_GM0016_HL03_E08_CV50.DTA
EXPLAIN
TAG	CV
TITLE	LABEL	Cyclic Voltammetry	Test &Identifier
DATE	LABEL	5/9/2024	Date
TIME	LABEL	14:04:35	Time
NOTES	NOTES	1	&Notes...

PSTAT	PSTAT	REF600P-43058	Potentiostat
VINIT	POTEN	0.00000E+000	T	Initial &E (V)
VLIMIT1	POTEN	8.00000E-001	F	Scan Limit &1 (V)
VLIMIT2	POTEN	-6.00000E-001	F	Scan Limit &2 (V)
VFINAL	POTEN	0.00000E+000	T	Final &E (V)
SCANRATE	QUANT	4.99999E+001	&Scan Rate (mV/s)
STEPSIZE	QUANT	1.00000E+001	St&ep Size (mV)
CYCLES	IQUANT	4	C&ycles (#)
IMODE	SELECTOR	0	I/E Range &Mode
IRANGE	QUANT	1.00000E-005	&Max Current (mA)
AREA	QUANT	1.00000E+000	Electrode &Area (cm^2)
ELECTRODETYPE	SELECTOR	0	Electrode Type
STRIPPING	TOGGLE	F	Used for Stripping
POLARITY	TOGGLE	F	Signal Polarity
CONDIT	TWOPARAM	F	1.50000E+001	0.00000E+000	Conditionin&g	Time(s)	E(V)
DELAY	TWOPARAM	T	1.00000E+001	0.00000E+000	Init. De&lay	Time(s)	Stab.(mV/s)
EQDELAY	QUANT	1.00000E+001	Equil. &Time (s)
IRCOMP	SELECTOR	0	IRCom&p
PFCOR	QUANT	5.00000E+001	PF Corr. (ohm)
SAMPLINGMODE	SELECTOR	1	Sampling &Mode
OCVCURVE	TABLE	39
	Pt	T	Vf	Vm	Ach	Over	Temp
	#	s	V vs. Ref.	V	V	bits	deg C
	0	0.258333	-2.08004E-001	-2.08004E-001	2.10792E-004	..........a	-327.66
	1	0.516667	-2.08007E-001	-2.08174E-001	2.04592E-004	..........a	-327.66
	2	0.775	-2.08027E-001	-2.08343E-001	2.16592E-004	..........a	-327.66
	3	1.03333	-2.08084E-001	-2.08508E-001	2.09726E-004	..........a	-327.66
	4	1.29167	-2.08189E-001	-2.08686E-001	2.08992E-004	..........a	-327.66
	5	1.55	-2.08330E-001	-2.08811E-001	2.08859E-004	..........a	-327.66
	6	1.80833	-2.08489E-001	-2.08986E-001	2.12592E-004	..........a	-327.66
	7	2.06667	-2.08652E-001	-2.09167E-001	2.02059E-004	..........a	-327.66
	8	2.325	-2.08815E-001	-2.09343E-001	1.97259E-004	..........a	-327.66
	9	2.58333	-2.08982E-001	-2.09522E-001	2.04259E-004	..........a	-327.66
	10	2.84167	-2.09154E-001	-2.09690E-001	2.04659E-004	..........a	-327.66
	11	3.1	-2.09328E-001	-2.09863E-001	2.09326E-004	..........a	-327.66
	12	3.35833	-2.09504E-001	-2.10037E-001	2.09659E-004	..........a	-327.66
	13	3.61667	-2.09677E-001	-2.10196E-001	2.08992E-004	..........a	-327.66
	14	3.875	-2.09849E-001	-2.10360E-001	2.06059E-004	..........a	-327.66
	15	4.13333	-2.10018E-001	-2.10527E-001	2.06592E-004	..........a	-327.66
	16	4.39167	-2.10184E-001	-2.10695E-001	1.98726E-004	..........a	-327.66
	17	4.65	-2.10349E-001	-2.10858E-001	2.07459E-004	..........a	-327.66
	18	4.90833	-2.10515E-001	-2.11021E-001	2.10592E-004	..........a	-327.66
	19	5.16667	-2.10680E-001	-2.11190E-001	2.04259E-004	..........a	-327.66
	20	5.425	-2.10845E-001	-2.11337E-001	1.93392E-004	..........a	-327.66
	21	5.68333	-2.11008E-001	-2.11501E-001	1.97792E-004	..........a	-327.66
	22	5.94167	-2.11170E-001	-2.11659E-001	1.97792E-004	..........a	-327.66
	23	6.2	-2.11329E-001	-2.11819E-001	1.96259E-004	..........a	-327.66
	24	6.45833	-2.11488E-001	-2.11975E-001	2.02726E-004	..........a	-327.66
	25	6.71667	-2.11646E-001	-2.12093E-001	2.04326E-004	..........a	-327.66
	26	6.975	-2.11800E-001	-2.12237E-001	1.99859E-004	..........a	-327.66
	27	7.23333	-2.11948E-001	-2.12402E-001	1.96392E-004	..........a	-327.66
	28	7.49167	-2.12092E-001	-2.12569E-001	2.04126E-004	..........a	-327.66
	29	7.75	-2.12240E-001	-2.12729E-001	2.11592E-004	..........a	-327.66
	30	8.00833	-2.12394E-001	-2.12884E-001	2.06926E-004	..........a	-327.66
	31	8.26667	-2.12553E-001	-2.13040E-001	2.06459E-004	..........a	-327.66
	32	8.525	-2.12712E-001	-2.13187E-001	2.03392E-004	..........a	-327.66
	33	8.78333	-2.12869E-001	-2.13333E-001	2.11726E-004	..........a	-327.66
	34	9.04167	-2.13023E-001	-2.13464E-001	2.12192E-004	..........a	-327.66
	35	9.3	-2.13172E-001	-2.13618E-001	2.16992E-004	..........a	-327.66
	36	9.5583	-2.13317E-001	-2.13772E-001	2.07259E-004	..........a	-327.66
	37	9.8167	-2.13462E-001	-2.13916E-001	2.05259E-004	..........a	-327.66
	38	10.075	-2.13609E-001	-2.14059E-001	1.98926E-004	..........a	-327.66
EOC	QUANT	-0.2136087	Open Circuit (V)
PSTATMODEL	IQUANT	7	Pstat Model
PSTATSECTION	LABEL	REF600P-43058	Pstat Section
PSTATSERIALNO	LABEL	43058	Pstat Serial Number
CTRLMODE	IQUANT	1	Control Mode
ELECTROMETER	IQUANT	0	RE=0 or CS=1
IESTAB	IQUANT	2	I/E Stability
CASPEED	IQUANT	4	Control Amp Speed
CONVENTION	IQUANT	1	Current Convention
ICHRANGE	IQUANT	2	Ich Range
ICHRANGEMODE	TOGGLE	F	Ich Auto Range
ICHOFFSETENABLE	TOGGLE	F	Ich Offset Enable
ICHOFFSET	QUANT	0	Ich Offset (V)
ICHFILTER	IQUANT	2	Ich Filter
VCHRANGE	IQUANT	2	Vch Range
VCHRANGEMODE	TOGGLE	F	Vch Auto Range
VCHOFFSETENABLE	TOGGLE	F	Vch Offset Enable
VCHOFFSET	QUANT	0	Vch Offset (V)
VCHFILTER	IQUANT	2	Vch Filter
ACHRANGE	IQUANT	2	Ach Range
ACHOFFSETENABLE	TOGGLE	F	Ach Offset Enable
ACHOFFSET	QUANT	0	Ach Offset (V)
ACHFILTER	IQUANT	1	Ach Filter
IERANGELOWERLIMIT	IQUANT	1	I/E Range Lower Limit
IERANGEMODE	TOGGLE	T	I/E AutoRange
IERANGE	IQUANT	4	I/E Range
POSFEEDENABLE	TOGGLE	F	Positive Feedback IR Comp
POSFEEDRESISTANCE	QUANT	0	Positive Feedback Resistance (ohm)
ACHSELECT	IQUANT	4	Ach Select
SENSECABLEID	IQUANT	7	Sense Cable ID
PWRCABLEID	IQUANT	7	Power Cable ID
DCCALDATE	LABEL	3/22/2024	DC Calibration Date
ACCALDATE	LABEL	3/22/2024	AC Calibration Date
THERMOSELECT	IQUANT	1	Thermo Select
FRAMEWORKVERSION	LABEL	7.8.4	Framework Version
INSTRUMENTVERSION	LABEL	4.42	Instrument Version
CURVE1	TABLE
	Pt	T	Vf	Im	Vu	Sig	Ach	IERange	Over	Temp
	#	s	V vs. Ref.	A	V	V	V	#	bits	deg C
	0	0.2	-2.13431E-001	1.56086E-009	0.00000E+000	-2.13600E-001	9.43592E-004	5	..........a	-327.66
	3	0.8	-1.83556E-001	1.19722E-008	0.00000E+000	-1.83600E-001	9.61792E-004	5	..........a	-327.66
	6	1.4	-1.53619E-001	1.74502E-008	0.00000E+000	-1.53600E-001	9.67692E-004	5	..........a	-327.66
	9	2	-1.23561E-001	2.19955E-008	0.00000E+000	-1.23600E-001	9.62992E-004	5	..........a	-327.66
	12	2.6	-9.35101E-002	2.62652E-008	0.00000E+000	-9.36000E-002	9.60492E-004	5	..........a	-327.66
	15	3.2	-6.35250E-002	3.04664E-008	0.00000E+000	-6.36000E-002	9.60992E-004	5	..........a	-327.66
	18	3.8	-3.36015E-002	3.48638E-008	0.00000E+000	-3.36000E-002	9.61992E-004	5	..........a	-327.66
	21	4.4	-3.55421E-003	3.94378E-008	0.00000E+000	-3.59999E-003	9.53692E-004	5	..........a	-327.66
	24	5	2.64772E-002	4.47192E-008	0.00000E+000	2.64000E-002	9.38592E-004	5	..........a	-327.66
	27	5.6	5.64188E-002	5.07050E-008	0.00000E+000	5.64000E-002	9.64092E-004	5	..........a	-327.66
	30	6.2	8.64443E-002	5.81991E-008	0.00000E+000	8.64000E-002	9.54792E-004	5	..........a	-327.66
	33	6.8	1.16417E-001	6.79135E-008	0.00000E+000	1.16400E-001	9.61492E-004	5	..........a	-327.66
	36	7.4	1.46530E-001	8.12605E-008	0.00000E+000	1.46400E-001	9.58892E-004	5	..........a	-327.66
	39	8	1.76381E-001	1.09750E-007	0.00000E+000	1.76400E-001	9.65892E-004	5	..........a	-327.66
	42	8.6	2.06354E-001	1.12401E-007	0.00000E+000	2.06400E-001	9.61092E-004	5	..........a	-327.66
	45	9.2	2.36394E-001	1.24812E-007	0.00000E+000	2.36400E-001	9.75892E-004	5	..........a	-327.66
	48	9.8	2.66366E-001	1.38929E-007	0.00000E+000	2.66400E-001	9.54392E-004	5	..........a	-327.66
	51	10.4	2.96392E-001	1.52514E-007	0.00000E+000	2.96400E-001	9.51292E-004	5	..........a	-327.66
	54	11	3.26300E-001	1.66528E-007	0.00000E+000	3.26400E-001	9.63292E-004	5	..........a	-327.66
	57	11.6	3.56377E-001	1.81193E-007	0.00000E+000	3.56400E-001	9.65992E-004	5	..........a	-327.66
	60	12.2	3.86333E-001	1.96656E-007	0.00000E+000	3.86400E-001	9.47392E-004	5	..........a	-327.66
	63	12.8	4.16292E-001	2.12471E-007	0.00000E+000	4.16400E-001	9.67592E-004	5	..........a	-327.66
	66	13.4	4.46288E-001	2.28037E-007	0.00000E+000	4.46400E-001	9.52292E-004	5	..........a	-327.66
	69	14	4.76371E-001	2.43135E-007	0.00000E+000	4.76400E-001	9.62092E-004	5	..........a	-327.66
	72	14.6	5.06274E-001	2.58052E-007	0.00000E+000	5.06400E-001	9.51992E-004	5	..........a	-327.66
	75	15.2	5.36268E-001	2.73322E-007	0.00000E+000	5.36400E-001	9.60392E-004	5	..........a	-327.66
	78	15.8	5.66245E-001	2.89632E-007	0.00000E+000	5.66400E-001	9.46792E-004	5	..........a	-327.66
	81	16.4	5.96307E-001	3.06866E-007	0.00000E+000	5.96400E-001	9.62492E-004	5	..........a	-327.66
	84	17	6.26193E-001	3.24928E-007	0.00000E+000	6.26400E-001	9.52592E-004	5	..........a	-327.66
	87	17.6	6.56209E-001	3.44077E-007	0.00000E+000	6.56400E-001	9.57692E-004	5	..........a	-327.66
	90	18.2	6.86174E-001	3.64947E-007	0.00000E+000	6.86400E-001	9.60792E-004	5	..........a	-327.66
	93	18.8	7.16244E-001	3.88407E-007	0.00000E+000	7.16400E-001	9.56992E-004	5	..........a	-327.66
	96	19.4	7.46158E-001	4.15863E-007	0.00000E+000	7.46400E-001	9.41992E-004	5	..........a	-327.66
	99	20	7.76150E-001	4.48279E-007	0.00000E+000	7.76400E-001	9.53292E-004	5	..........a	-327.66
	102	20.6	7.86163E-001	4.00063E-007	0.00000E+000	7.86400E-001	9.44592E-004	5	..........a	-327.66
	105	21.2	7.56311E-001	2.74992E-007	0.00000E+000	7.56400E-001	9.48292E-004	5	..........a	-327.66
	108	21.8	7.26251E-001	2.04933E-007	0.00000E+000	7.26400E-001	9.61492E-004	5	..........a	-327.66
	111	22.4	6.96288E-001	1.58855E-007	0.00000E+000	6.96400E-001	9.63192E-004	5	..........a	-327.66
	114	23	6.66275E-001	1.25942E-007	0.00000E+000	6.66400E-001	9.58192E-004	5	..........a	-327.66
	117	23.6	6.36360E-001	1.01102E-007	0.00000E+000	6.36400E-001	9.55092E-004	5	..........a	-327.66
	120	24.2	6.06322E-001	8.17126E-008	0.00000E+000	6.06400E-001	9.59192E-004	5	..........a	-327.66
	123	24.8	5.76399E-001	6.61712E-008	0.00000E+000	5.76400E-001	9.56792E-004	5	..........a	-327.66
	126	25.4	5.46386E-001	5.34769E-008	0.00000E+000	5.46400E-001	9.68992E-004	5	..........a	-327.66
	129	26	5.16376E-001	4.28415E-008	0.00000E+000	5.16400E-001	9.63792E-004	5	..........a	-327.66
	132	26.6	4.86328E-001	3.39735E-008	0.00000E+000	4.86400E-001	9.54492E-004	5	..........a	-327.66
	135	27.2	4.56387E-001	2.59594E-008	0.00000E+000	4.56400E-001	9.59592E-004	5	..........a	-327.66
	138	27.8	4.26435E-001	1.86496E-008	0.00000E+000	4.26400E-001	9.54992E-004	5	..........a	-327.66
	141	28.4	3.96463E-001	1.18428E-008	0.00000E+000	3.96400E-001	9.65192E-004	5	..........a	-327.66
	144	29	3.66414E-001	5.34236E-009	0.00000E+000	3.66400E-001	9.47392E-004	5	..........a	-327.66
	147	29.6	3.36401E-001	-1.17741E-009	0.00000E+000	3.36400E-001	9.58092E-004	5	..........a	-327.66
	150	30.2	3.06466E-001	-6.48761E-009	0.00000E+000	3.06400E-001	9.47292E-004	5	..........a	-327.66
	153	30.8	2.76452E-001	-1.21816E-008	0.00000E+000	2.76400E-001	9.58792E-004	5	..........a	-327.66
	156	31.4	2.46446E-001	-1.76843E-008	0.00000E+000	2.46400E-001	9.57592E-004	5	..........a	-327.66
	159	32	2.16475E-001	-2.38799E-008	0.00000E+000	2.16400E-001	9.71692E-004	5	..........a	-327.66
	162	32.6	1.86544E-001	-3.03223E-008	0.00000E+000	1.86400E-001	9.48792E-004	5	..........a	-327.66
	165	33.2	1.56478E-001	-3.69268E-008	0.00000E+000	1.56400E-001	9.72992E-004	5	..........a	-327.66
	168	33.8	1.26497E-001	-4.29006E-008	0.00000E+000	1.26400E-001	9.57492E-004	5	..........a	-327.66
	171	34.4	9.64654E-002	-4.72750E-008	0.00000E+000	9.64000E-002	9.50592E-004	5	..........a	-327.66
	174	35	6.65052E-002	-4.92135E-008	0.00000E+000	6.64000E-002	9.55492E-004	5	..........a	-327.66
	177	35.6	3.65485E-002	-5.03974E-008	0.00000E+000	3.64000E-002	9.38092E-004	5	..........a	-327.66
	180	36.2	6.51549E-003	-5.20563E-008	0.00000E+000	6.40000E-003	9.57192E-004	5	..........a	-327.66
	183	36.8	-2.35256E-002	-5.23760E-008	0.00000E+000	-2.36000E-002	9.50392E-004	5	..........a	-327.66
	186	37.4	-5.34499E-002	-5.30060E-008	0.00000E+000	-5.36000E-002	9.44192E-004	5	..........a	-327.66
	189	38	-8.34971E-002	-5.43911E-008	0.00000E+000	-8.36000E-002	9.60792E-004	5	..........a	-327.66
	192	38.6	-1.13417E-001	-5.59030E-008	0.00000E+000	-1.13600E-001	9.66792E-004	5	..........a	-327.66
	195	39.2	-1.43486E-001	-5.81719E-008	0.00000E+000	-1.43600E-001	9.56492E-004	5	..........a	-327.66
	198	39.8	-1.73463E-001	-6.14479E-008	0.00000E+000	-1.73600E-001	9.37792E-004	5	..........a	-327.66
	201	40.4	-2.03460E-001	-6.57525E-008	0.00000E+000	-2.03600E-001	9.55892E-004	5	..........a	-327.66
	204	41	-2.33480E-001	-7.02958E-008	0.00000E+000	-2.33600E-001	9.56892E-004	5	..........a	-327.66
	207	41.6	-2.63462E-001	-7.43792E-008	0.00000E+000	-2.63600E-001	9.45792E-004	5	..........a	-327.66
	210	42.2	-2.93380E-001	-7.93694E-008	0.00000E+000	-2.93600E-001	9.49092E-004	5	..........a	-327.66
	213	42.8	-3.23441E-001	-8.40716E-008	0.00000E+000	-3.23600E-001	9.53492E-004	5	..........a	-327.66
	216	43.4	-3.53462E-001	-8.85871E-008	0.00000E+000	-3.53600E-001	9.56692E-004	5	..........a	-327.66
	219	44	-3.83484E-001	-9.33099E-008	0.00000E+000	-3.83600E-001	9.52692E-004	5	..........a	-327.66
	222	44.6	-4.13337E-001	-9.83834E-008	0.00000E+000	-4.13600E-001	9.63292E-004	5	..........a	-327.66
	225	45.2	-4.43428E-001	-1.03939E-007	0.00000E+000	-4.43600E-001	9.62192E-004	5	..........a	-327.66
	228	45.8	-4.73379E-001	-1.09604E-007	0.00000E+000	-4.73600E-001	9.46292E-004	5	..........a	-327.66
	231	46.4	-5.03411E-001	-1.15756E-007	0.00000E+000	-5.03600E-001	9.55692E-004	5	..........a	-327.66
	234	47	-5.33362E-001	-1.21792E-007	0.00000E+000	-5.33600E-001	9.45392E-004	5	..........a	-327.66
	237	47.6	-5.63420E-001	-1.28908E-007	0.00000E+000	-5.63600E-001	9.75792E-004	5	..........a	-327.66
	240	48.2	-5.93412E-001	-1.35923E-007	0.00000E+000	-5.93600E-001	9.53992E-004	5	..........a	-327.66
	241	48.4	-6.03413E-001	-1.36974E-007	0.00000E+000	-6.03600E-001	9.65392E-004	5	..........a	-327.66
CURVE2	TABLE
	Pt	T	Vf	Im	Vu	Sig	Ach	IERange	Over	Temp
	#	s	V vs. Ref.	A	V	V	V	#	bits	deg C
	242	48.6	-5.89828E-001	-1.04191E-007	0.00000E+000	-5.90000E-001	9.40392E-004	5	..........a	-327.66
	245	49.2	-5.59886E-001	-6.84801E-008	0.00000E+000	-5.60000E-001	9.63692E-004	5	..........a	-327.66
	248	49.8	-5.29848E-001	-4.79965E-008	0.00000E+000	-5.30000E-001	9.71592E-004	5	..........a	-327.66
	251	50.4	-4.99826E-001	-3.39078E-008	0.00000E+000	-5.00000E-001	9.48392E-004	5	..........a	-327.66
	254	51	-4.69838E-001	-2.43214E-008	0.00000E+000	-4.70000E-001	9.35192E-004	5	..........a	-327.66
	257	51.6	-4.39840E-001	-1.51529E-008	0.00000E+000	-4.40000E-001	9.37092E-004	5	..........a	-327.66
	260	52.2	-4.09853E-001	-8.27134E-009	0.00000E+000	-4.10000E-001	9.65292E-004	5	..........a	-327.66
	263	52.8	-3.79859E-001	-2.08531E-009	0.00000E+000	-3.80000E-001	9.36192E-004	5	..........a	-327.66
	266	53.4	-3.49919E-001	3.09691E-009	0.00000E+000	-3.50000E-001	9.56892E-004	5	..........a	-327.66
	269	54	-3.19902E-001	8.17873E-009	0.00000E+000	-3.20000E-001	9.53692E-004	5	..........a	-327.66
	272	54.6	-2.89949E-001	1.27810E-008	0.00000E+000	-2.90000E-001	9.56292E-004	5	..........a	-327.66
	275	55.2	-2.59841E-001	1.72142E-008	0.00000E+000	-2.60000E-001	9.41392E-004	5	..........a	-327.66
	278	55.8	-2.29943E-001	2.14052E-008	0.00000E+000	-2.30000E-001	9.69992E-004	5	..........a	-327.66
	281	56.4	-1.99960E-001	2.55547E-008	0.00000E+000	-2.00000E-001	9.54292E-004	5	..........a	-327.66
	284	57	-1.69904E-001	2.96258E-008	0.00000E+000	-1.70000E-001	9.60492E-004	5	..........a	-327.66
	287	57.6	-1.39920E-001	3.36640E-008	0.00000E+000	-1.40000E-001	9.53192E-004	5	..........a	-327.66
	290	58.2	-1.09958E-001	3.78116E-008	0.00000E+000	-1.10000E-001	9.59692E-004	5	..........a	-327.66
	293	58.8	-7.99790E-002	4.21457E-008	0.00000E+000	-8.00000E-002	9.58992E-004	5	..........a	-327.66
	296	59.4	-4.99088E-002	4.66165E-008	0.00000E+000	-5.00000E-002	9.60892E-004	5	..........a	-327.66
	299	60	-1.99390E-002	5.13702E-008	0.00000E+000	-2.00000E-002	9.72092E-004	5	..........a	-327.66
	302	60.6	1.00810E-002	5.64240E-008	0.00000E+000	1.00000E-002	9.52692E-004	5	..........a	-327.66
	305	61.2	4.00070E-002	6.18957E-008	0.00000E+000	4.00000E-002	9.64492E-004	5	..........a	-327.66
	308	61.8	7.00219E-002	6.79340E-008	0.00000E+000	7.00000E-002	9.58592E-004	5	..........a	-327.66
	311	62.4	1.00064E-001	7.49998E-008	0.00000E+000	1.00000E-001	9.57692E-004	5	..........a	-327.66
	314	63	1.30011E-001	8.30931E-008	0.00000E+000	1.30000E-001	9.78992E-004	5	..........a	-327.66
	317	63.6	1.59992E-001	9.07892E-008	0.00000E+000	1.60000E-001	9.51592E-004	5	..........a	-327.66
	320	64.2	1.90066E-001	9.93794E-008	0.00000E+000	1.90000E-001	9.47592E-004	5	..........a	-327.66
	323	64.8	2.19967E-001	1.07611E-007	0.00000E+000	2.20000E-001	9.42992E-004	5	..........a	-327.66
	326	65.4	2.49964E-001	1.14454E-007	0.00000E+000	2.50000E-001	9.57792E-004	5	..........a	-327.66
	329	66	2.79931E-001	1.21160E-007	0.00000E+000	2.80000E-001	9.70192E-004	5	..........a	-327.66
	332	66.6	3.10000E-001	1.28879E-007	0.00000E+000	3.10000E-001	9.60592E-004	5	..........a	-327.66
	335	67.2	3.39996E-001	1.37468E-007	0.00000E+000	3.40000E-001	9.52592E-004	5	..........a	-327.66
	338	67.8	3.69966E-001	1.46513E-007	0.00000E+000	3.70000E-001	9.52492E-004	5	..........a	-327.66
	341	68.4	3.99976E-001	1.55477E-007	0.00000E+000	4.00000E-001	9.50992E-004	5	..........a	-327.66
	344	69	4.29967E-001	1.64180E-007	0.00000E+000	4.30000E-001	9.75292E-004	5	..........a	-327.66
	347	69.6	4.59920E-001	1.72530E-007	0.00000E+000	4.60000E-001	9.56392E-004	5	..........a	-327.66
	350	70.2	4.89890E-001	1.80426E-007	0.00000E+000	4.90000E-001	9.66292E-004	5	..........a	-327.66
	353	70.8	5.19906E-001	1.88402E-007	0.00000E+000	5.20000E-001	9.46992E-004	5	..........a	-327.66
	356	71.4	5.49937E-001	1.97789E-007	0.00000E+000	5.50000E-001	9.37792E-004	5	..........a	-327.66
	359	72	5.79882E-001	2.09887E-007	0.00000E+000	5.80000E-001	9.33792E-004	5	..........a	-327.66
[...]
	946	189.4	7.49946E-001	1.83435E-007	0.00000E+000	7.50000E-001	9.73092E-004	5	..........a	-327.66
	949	190	7.19892E-001	1.40875E-007	0.00000E+000	7.20000E-001	9.68292E-004	5	..........a	-327.66
	952	190.6	6.89907E-001	1.11766E-007	0.00000E+000	6.90000E-001	9.73292E-004	5	..........a	-327.66
	955	191.2	6.59912E-001	9.01835E-008	0.00000E+000	6.60000E-001	9.60592E-004	5	..........a	-327.66
	958	191.8	6.30033E-001	7.31232E-008	0.00000E+000	6.30000E-001	9.57292E-004	5	..........a	-327.66
	961	192.4	5.99972E-001	5.95083E-008	0.00000E+000	6.00000E-001	9.78392E-004	5	..........a	-327.66
	964	193	5.69955E-001	4.79207E-008	0.00000E+000	5.70000E-001	9.73092E-004	5	..........a	-327.66
	967	193.6	5.40013E-001	3.79170E-008	0.00000E+000	5.40000E-001	9.62592E-004	5	..........a	-327.66
	970	194.2	5.09982E-001	2.88104E-008	0.00000E+000	5.10000E-001	9.68692E-004	5	..........a	-327.66
	973	194.8	4.79924E-001	1.91607E-008	0.00000E+000	4.80000E-001	9.63492E-004	5	..........a	-327.66
	976	195.4	4.49951E-001	8.19616E-009	0.00000E+000	4.50000E-001	9.65592E-004	5	..........a	-327.66
	979	196	4.20021E-001	2.42640E-009	0.00000E+000	4.20000E-001	9.64192E-004	5	..........a	-327.66
	982	196.6	3.90049E-001	-1.63251E-009	0.00000E+000	3.90000E-001	9.68492E-004	5	..........a	-327.66
	985	197.2	3.60050E-001	-5.29834E-009	0.00000E+000	3.60000E-001	9.57592E-004	5	..........a	-327.66
	988	197.8	3.30056E-001	-8.52918E-009	0.00000E+000	3.30000E-001	9.55592E-004	5	..........a	-327.66
	991	198.4	3.00079E-001	-1.17779E-008	0.00000E+000	3.00000E-001	9.54292E-004	5	..........a	-327.66
	994	199	2.70115E-001	-1.47520E-008	0.00000E+000	2.70000E-001	9.63192E-004	5	..........a	-327.66
	997	199.6	2.40063E-001	-1.75606E-008	0.00000E+000	2.40000E-001	9.82292E-004	5	..........a	-327.66
	1000	200.2	2.10041E-001	-2.06308E-008	0.00000E+000	2.10000E-001	9.64992E-004	5	..........a	-327.66
	1003	200.8	1.80120E-001	-2.39655E-008	0.00000E+000	1.80000E-001	9.56292E-004	5	..........a	-327.66
	1006	201.4	1.50087E-001	-2.75858E-008	0.00000E+000	1.50000E-001	9.63392E-004	5	..........a	-327.66
	1009	202	1.20048E-001	-3.17752E-008	0.00000E+000	1.20000E-001	9.63492E-004	5	..........a	-327.66
	1012	202.6	9.01303E-002	-3.56663E-008	0.00000E+000	9.00000E-002	9.47492E-004	5	..........a	-327.66
	1015	203.2	6.01246E-002	-3.85282E-008	0.00000E+000	6.00000E-002	9.70292E-004	5	..........a	-327.66
	1018	203.8	3.00875E-002	-4.06062E-008	0.00000E+000	3.00000E-002	9.77592E-004	5	..........a	-327.66
	1021	204.4	6.77916E-005	-4.29358E-008	0.00000E+000	7.45058E-009	9.65592E-004	5	..........a	-327.66
	1024	205	-2.99069E-002	-4.34089E-008	0.00000E+000	-3.00000E-002	9.54392E-004	5	..........a	-327.66
	1027	205.6	-5.98785E-002	-4.51814E-008	0.00000E+000	-6.00000E-002	9.51392E-004	5	..........a	-327.66
	1030	206.2	-8.98801E-002	-4.82663E-008	0.00000E+000	-9.00000E-002	9.54592E-004	5	..........a	-327.66
	1033	206.8	-1.19884E-001	-5.11092E-008	0.00000E+000	-1.20000E-001	9.71692E-004	5	..........a	-327.66
	1036	207.4	-1.49908E-001	-5.53115E-008	0.00000E+000	-1.50000E-001	9.65792E-004	5	..........a	-327.66
	1039	208	-1.79863E-001	-5.97525E-008	0.00000E+000	-1.80000E-001	9.39992E-004	5	..........a	-327.66
	1042	208.6	-2.09859E-001	-6.45204E-008	0.00000E+000	-2.10000E-001	9.49092E-004	5	..........a	-327.66
	1045	209.2	-2.39877E-001	-6.94880E-008	0.00000E+000	-2.40000E-001	9.50692E-004	5	..........a	-327.66
	1048	209.8	-2.69844E-001	-7.40696E-008	0.00000E+000	-2.70000E-001	9.58192E-004	5	..........a	-327.66
	1051	210.4	-2.99831E-001	-7.89228E-008	0.00000E+000	-3.00000E-001	9.39692E-004	5	..........a	-327.66
	1054	211	-3.29869E-001	-8.36796E-008	0.00000E+000	-3.30000E-001	9.62092E-004	5	..........a	-327.66
	1057	211.6	-3.59848E-001	-8.81239E-008	0.00000E+000	-3.60000E-001	9.57392E-004	5	..........a	-327.66
	1060	212.2	-3.89855E-001	-9.22530E-008	0.00000E+000	-3.90000E-001	9.54792E-004	5	..........a	-327.66
	1063	212.8	-4.19771E-001	-9.69168E-008	0.00000E+000	-4.20000E-001	9.48392E-004	5	..........a	-327.66
	1066	213.4	-4.49826E-001	-1.01512E-007	0.00000E+000	-4.50000E-001	9.61792E-004	5	..........a	-327.66
	1069	214	-4.79811E-001	-1.06469E-007	0.00000E+000	-4.80000E-001	9.62092E-004	5	..........a	-327.66
	1072	214.6	-5.09821E-001	-1.11452E-007	0.00000E+000	-5.10000E-001	9.49892E-004	5	..........a	-327.66
	1075	215.2	-5.39747E-001	-1.16645E-007	0.00000E+000	-5.40000E-001	9.38592E-004	5	..........a	-327.66
	1078	215.8	-5.69816E-001	-1.22181E-007	0.00000E+000	-5.70000E-001	9.63892E-004	5	..........a	-327.66
	1081	216.4	-5.99771E-001	-1.27842E-007	0.00000E+000	-6.00000E-001	9.48392E-004	5	..........a	-327.66
CURVE5	TABLE
	Pt	T	Vf	Im	Vu	Sig	Ach	IERange	Over	Temp
	#	s	V vs. Ref.	A	V	V	V	#	bits	deg C
	1082	216.6	-5.89838E-001	-1.02366E-007	0.00000E+000	-5.90000E-001	9.59992E-004	5	..........a	-327.66
	1083	216.8	-5.79803E-001	-8.72823E-008	0.00000E+000	-5.80000E-001	9.60192E-004	5	..........a	-327.66
	1084	217	-5.69841E-001	-7.59994E-008	0.00000E+000	-5.70000E-001	9.50592E-004	5	..........a	-327.66
	1085	217.2	-5.59841E-001	-6.70941E-008	0.00000E+000	-5.60000E-001	9.45792E-004	5	..........a	-327.66
	1086	217.4	-5.49838E-001	-5.96323E-008	0.00000E+000	-5.50000E-001	9.54092E-004	5	..........a	-327.66
	1087	217.6	-5.39793E-001	-5.33027E-008	0.00000E+000	-5.40000E-001	9.43392E-004	5	..........a	-327.66
	1088	217.8	-5.29846E-001	-4.76998E-008	0.00000E+000	-5.30000E-001	9.53792E-004	5	..........a	-327.66
	1089	218	-5.19875E-001	-4.27803E-008	0.00000E+000	-5.20000E-001	9.49892E-004	5	..........a	-327.66
	1090	218.2	-5.09866E-001	-3.83301E-008	0.00000E+000	-5.10000E-001	9.57292E-004	5	..........a	-327.66
	1091	218.4	-4.99828E-001	-3.43691E-008	0.00000E+000	-5.00000E-001	9.53192E-004	5	..........a	-327.66
	1092	218.6	-4.89846E-001	-3.09040E-008	0.00000E+000	-4.90000E-001	9.56992E-004	5	..........a	-327.66
	1093	218.8	-4.79865E-001	-2.74456E-008	0.00000E+000	-4.80000E-001	9.69392E-004	5	..........a	-327.66
	1094	219	-4.69845E-001	-2.43626E-008	0.00000E+000	-4.70000E-001	9.55692E-004	5	..........a	-327.66
	1095	219.2	-4.59831E-001	-2.15286E-008	0.00000E+000	-4.60000E-001	9.56192E-004	5	..........a	-327.66
	1096	219.4	-4.49851E-001	-1.87973E-008	0.00000E+000	-4.50000E-001	9.52992E-004	5	..........a	-327.66
	1097	219.6	-4.39846E-001	-1.62896E-008	0.00000E+000	-4.40000E-001	9.57592E-004	5	..........a	-327.66
	1098	219.8	-4.29857E-001	-1.38970E-008	0.00000E+000	-4.30000E-001	9.70992E-004	5	..........a	-327.66
	1099	220	-4.19834E-001	-1.15846E-008	0.00000E+000	-4.20000E-001	9.50992E-004	5	..........a	-327.66
	1100	220.2	-4.09860E-001	-9.42984E-009	0.00000E+000	-4.10000E-001	9.61492E-004	5	..........a	-327.66
	1101	220.4	-3.99882E-001	-7.24136E-009	0.00000E+000	-4.00000E-001	9.63592E-004	5	..........a	-327.66
	1102	220.6	-3.89884E-001	-5.27763E-009	0.00000E+000	-3.90000E-001	9.55392E-004	5	..........a	-327.66
	1103	220.8	-3.79847E-001	-3.30155E-009	0.00000E+000	-3.80000E-001	9.36592E-004	5	..........a	-327.66
	1104	221	-3.69887E-001	-1.41835E-009	0.00000E+000	-3.70000E-001	9.72692E-004	5	..........a	-327.66
	1105	221.2	-3.59945E-001	-1.41869E-010	0.00000E+000	-3.60000E-001	9.50492E-004	5	..........a	-327.66
	1106	221.4	-3.49904E-001	2.12379E-009	0.00000E+000	-3.50000E-001	9.59692E-004	5	..........a	-327.66
	1107	221.6	-3.39848E-001	3.91143E-009	0.00000E+000	-3.40000E-001	9.57992E-004	5	..........a	-327.66
	1108	221.8	-3.29915E-001	5.58880E-009	0.00000E+000	-3.30000E-001	9.63092E-004	5	..........a	-327.66
	1109	222	-3.19898E-001	7.22419E-009	0.00000E+000	-3.20000E-001	9.55392E-004	5	..........a	-327.66
	1110	222.2	-3.09927E-001	8.83474E-009	0.00000E+000	-3.10000E-001	9.55892E-004	5	..........a	-327.66
	1111	222.4	-2.99863E-001	1.04066E-008	0.00000E+000	-3.00000E-001	9.34792E-004	5	..........a	-327.66
	1112	222.6	-2.89900E-001	1.19324E-008	0.00000E+000	-2.90000E-001	9.53992E-004	5	..........a	-327.66
	1113	222.8	-2.79963E-001	1.33640E-008	0.00000E+000	-2.80000E-001	9.61592E-004	5	..........a	-327.66
	1114	223	-2.69882E-001	1.49169E-008	0.00000E+000	-2.70000E-001	9.49492E-004	5	..........a	-327.66
	1115	223.2	-2.59851E-001	1.64192E-008	0.00000E+000	-2.60000E-001	9.61192E-004	5	..........a	-327.66
	1116	223.4	-2.49902E-001	1.79238E-008	0.00000E+000	-2.50000E-001	9.56692E-004	5	..........a	-327.66
	1117	223.6	-2.39919E-001	1.93584E-008	0.00000E+000	-2.40000E-001	9.50792E-004	5	..........a	-327.66
	1118	223.8	-2.29955E-001	2.07647E-008	0.00000E+000	-2.30000E-001	9.70892E-004	5	..........a	-327.66
	1119	224	-2.19888E-001	2.22372E-008	0.00000E+000	-2.20000E-001	9.41692E-004	5	..........a	-327.66
	1120	224.2	-2.09930E-001	2.36485E-008	0.00000E+000	-2.10000E-001	9.56492E-004	5	..........a	-327.66