File: example_project/raw_outputs/20240321_ZF_GM0016_HL03_E08_CV50k.DTA
EXPLAIN
TAG	CV
TITLE	LABEL	Cyclic Voltammetry	Test &Identifier
DATE	LABEL	3/21/2024	Date
TIME	LABEL	18:19:28	Time
NOTES	NOTES	1	&Notes...

PSTAT	PSTAT	REF600P-43058	Potentiostat
VINIT	POTEN	0.00000E+000	T	Initial &E (V)
VLIMIT1	POTEN	-6.00000E-001	F	Scan Limit &1 (V)
VLIMIT2	POTEN	8.00000E-001	F	Scan Limit &2 (V)
VFINAL	POTEN	0.00000E+000	T	Final &E (V)
SCANRATE	QUANT	4.99999E+004	&Scan Rate (mV/s)
STEPSIZE	QUANT	1.00000E+001	St&ep Size (mV)
CYCLES	IQUANT	10	C&ycles (#)
IMODE	SELECTOR	1	I/E Range &Mode
IRANGE	QUANT	1.00000E-005	&Max Current (mA)
AREA	QUANT	1.00000E+000	Electrode &Area (cm^2)
ELECTRODETYPE	SELECTOR	0	Electrode Type
STRIPPING	TOGGLE	F	Used for Stripping
POLARITY	TOGGLE	F	Signal Polarity
CONDIT	TWOPARAM	F	1.50000E+001	0.00000E+000	Conditionin&g	Time(s)	E(V)
DELAY	TWOPARAM	T	1.00000E+001	0.00000E+000	Init. De&lay	Time(s)	Stab.(mV/s)
EQDELAY	QUANT	1.00000E+001	Equil. &Time (s)
IRCOMP	SELECTOR	0	IRCom&p
PFCOR	QUANT	5.00000E+001	PF Corr. (ohm)
SAMPLINGMODE	SELECTOR	1	Sampling &Mode
OCVCURVE	TABLE	39
	Pt	T	Vf	Vm	Ach	Over	Temp
	#	s	V vs. Ref.	V	V	bits	deg C
	0	0.258333	4.45342E-001	4.45342E-001	2.45356E-004	..........a	-327.66
	1	0.516667	4.45349E-001	4.45692E-001	2.49089E-004	..........a	-327.66
	2	0.775	4.45390E-001	4.46012E-001	2.48556E-004	..........a	-327.66
	3	1.03333	4.45506E-001	4.46371E-001	2.42022E-004	..........a	-327.66
	4	1.29167	4.45715E-001	4.46710E-001	2.44889E-004	..........a	-327.66
	5	1.55	4.46003E-001	4.47107E-001	2.50889E-004	..........a	-327.66
	6	1.80833	4.46337E-001	4.47438E-001	2.42556E-004	..........a	-327.66
	7	2.06667	4.46693E-001	4.47788E-001	2.41422E-004	..........a	-327.66
	8	2.325	4.47053E-001	4.48115E-001	2.59156E-004	..........a	-327.66
	9	2.58333	4.47411E-001	4.48642E-001	2.55356E-004	..........a	-327.66
	10	2.84167	4.47772E-001	4.48815E-001	2.56022E-004	..........a	-327.66
	11	3.1	4.48135E-001	4.49086E-001	2.47422E-004	..........a	-327.66
	12	3.35833	4.48481E-001	4.49369E-001	2.36422E-004	..........a	-327.66
	13	3.61667	4.48788E-001	4.49415E-001	2.41756E-004	..........a	-327.66
	14	3.875	4.49051E-001	4.49702E-001	2.38622E-004	..........a	-327.66
	15	4.13333	4.49287E-001	4.50538E-001	2.46756E-004	..........a	-327.66
	16	4.39167	4.49553E-001	4.50765E-001	2.52356E-004	..........a	-327.66
	17	4.65	4.49900E-001	4.51181E-001	2.56822E-004	..........a	-327.66
	18	4.90833	4.50309E-001	4.51472E-001	2.50156E-004	..........a	-327.66
	19	5.16667	4.50725E-001	4.51980E-001	2.51956E-004	..........a	-327.66
	20	5.425	4.51119E-001	4.52107E-001	2.58489E-004	..........a	-327.66
	21	5.68333	4.51487E-001	4.52402E-001	2.38089E-004	..........a	-327.66
	22	5.94167	4.51822E-001	4.52816E-001	2.54222E-004	..........a	-327.66
	23	6.2	4.52132E-001	4.53092E-001	2.52222E-004	..........a	-327.66
	24	6.45833	4.52442E-001	4.53595E-001	2.56622E-004	..........a	-327.66
	25	6.71667	4.52772E-001	4.53757E-001	2.54556E-004	..........a	-327.66
	26	6.975	4.53114E-001	4.54054E-001	2.50156E-004	..........a	-327.66
	27	7.23333	4.53447E-001	4.54423E-001	2.58089E-004	..........a	-327.66
	28	7.49167	4.53763E-001	4.54748E-001	2.52756E-004	..........a	-327.66
	29	7.75	4.54077E-001	4.55213E-001	2.60756E-004	..........a	-327.66
	30	8.00833	4.54406E-001	4.55377E-001	2.42689E-004	..........a	-327.66
	31	8.26667	4.54746E-001	4.55683E-001	2.44422E-004	..........a	-327.66
	32	8.525	4.55075E-001	4.56021E-001	2.62289E-004	..........a	-327.66
	33	8.78333	4.55385E-001	4.56342E-001	2.47089E-004	..........a	-327.66
	34	9.04167	4.55692E-001	4.56795E-001	2.66356E-004	..........a	-327.66
	35	9.3	4.56011E-001	4.56944E-001	2.61689E-004	..........a	-327.66
	36	9.5583	4.56340E-001	4.57255E-001	2.48356E-004	..........a	-327.66
	37	9.8167	4.56659E-001	4.57612E-001	2.60022E-004	..........a	-327.66
	38	10.075	4.56963E-001	4.57914E-001	2.45089E-004	..........a	-327.66
EOC	QUANT	0.4569635	Open Circuit (V)
PSTATMODEL	IQUANT	7	Pstat Model
PSTATSECTION	LABEL	REF600P-43058	Pstat Section
PSTATSERIALNO	LABEL	43058	Pstat Serial Number
CTRLMODE	IQUANT	1	Control Mode
ELECTROMETER	IQUANT	0	RE=0 or CS=1
IESTAB	IQUANT	2	I/E Stability
CASPEED	IQUANT	4	Control Amp Speed
CONVENTION	IQUANT	1	Current Convention
ICHRANGE	IQUANT	2	Ich Range
ICHRANGEMODE	TOGGLE	F	Ich Auto Range
ICHOFFSETENABLE	TOGGLE	F	Ich Offset Enable
ICHOFFSET	QUANT	0	Ich Offset (V)
ICHFILTER	IQUANT	1	Ich Filter
VCHRANGE	IQUANT	2	Vch Range
VCHRANGEMODE	TOGGLE	F	Vch Auto Range
VCHOFFSETENABLE	TOGGLE	F	Vch Offset Enable
VCHOFFSET	QUANT	0	Vch Offset (V)
VCHFILTER	IQUANT	1	Vch Filter
ACHRANGE	IQUANT	2	Ach Range
ACHOFFSETENABLE	TOGGLE	F	Ach Offset Enable
ACHOFFSET	QUANT	0	Ach Offset (V)
ACHFILTER	IQUANT	1	Ach Filter
IERANGELOWERLIMIT	IQUANT	1	I/E Range Lower Limit
IERANGEMODE	TOGGLE	F	I/E AutoRange
IERANGE	IQUANT	4	I/E Range
POSFEEDENABLE	TOGGLE	F	Positive Feedback IR Comp
POSFEEDRESISTANCE	QUANT	0	Positive Feedback Resistance (ohm)
ACHSELECT	IQUANT	4	Ach Select
SENSECABLEID	IQUANT	7	Sense Cable ID
PWRCABLEID	IQUANT	7	Power Cable ID
DCCALDATE	LABEL	12/18/2023	DC Calibration Date
ACCALDATE	LABEL	12/18/2023	AC Calibration Date
THERMOSELECT	IQUANT	1	Thermo Select
FRAMEWORKVERSION	LABEL	7.8.4	Framework Version
INSTRUMENTVERSION	LABEL	4.42	Instrument Version
CURVE1	TABLE
	Pt	T	Vf	Im	Vu	Sig	Ach	IERange	Over	Temp
	#	s	V vs. Ref.	A	V	V	V	#	bits	deg C
	0	0.0002	4.57070E-001	1.97884E-011	0.00000E+000	4.56950E-001	8.00223E-005	4	..........a	-327.66
	3	0.0008	4.27170E-001	-9.42160E-011	0.00000E+000	4.26950E-001	8.00223E-005	4	..........a	-327.66
	6	0.0014	3.97070E-001	-2.19221E-010	0.00000E+000	3.96950E-001	8.00223E-005	4	..........a	-327.66
	9	0.002	3.66870E-001	-3.52226E-010	0.00000E+000	3.66950E-001	8.00223E-005	4	..........a	-327.66
	12	0.0026	3.37070E-001	-5.14232E-010	0.00000E+000	3.36950E-001	8.00223E-005	4	..........a	-327.66
	15	0.0032	3.06870E-001	-6.72238E-010	0.00000E+000	3.06950E-001	8.00223E-005	4	..........a	-327.66
	18	0.0038	2.76970E-001	-8.46245E-010	0.00000E+000	2.76950E-001	8.00223E-005	4	..........a	-327.66
	21	0.0044	2.46870E-001	-1.03725E-009	0.00000E+000	2.46950E-001	8.00223E-005	4	..........a	-327.66
	24	0.005	2.17070E-001	-1.24626E-009	0.00000E+000	2.16950E-001	8.00223E-005	4	..........a	-327.66
	27	0.0056	1.86970E-001	-1.47827E-009	0.00000E+000	1.86950E-001	8.00223E-005	4	..........a	-327.66
	30	0.0062	1.57070E-001	-1.72228E-009	0.00000E+000	1.56950E-001	8.00223E-005	4	..........a	-327.66
	33	0.0068	1.27070E-001	-1.99929E-009	0.00000E+000	1.26950E-001	8.00223E-005	4	..........a	-327.66
	36	0.0074	9.70695E-002	-2.29130E-009	0.00000E+000	9.69500E-002	8.00223E-005	4	..........a	-327.66
	39	0.008	6.69695E-002	-2.62831E-009	0.00000E+000	6.69500E-002	8.00223E-005	4	..........a	-327.66
	42	0.0086	3.70695E-002	-2.98033E-009	0.00000E+000	3.69500E-002	8.00223E-005	4	..........a	-327.66
	45	0.0092	6.96952E-003	-3.36334E-009	0.00000E+000	6.95001E-003	8.00223E-005	4	..........a	-327.66
	48	0.0098	-2.31305E-002	-3.76436E-009	0.00000E+000	-2.30500E-002	8.00223E-005	4	..........a	-327.66
	51	0.0104	-5.31305E-002	-4.18837E-009	0.00000E+000	-5.30500E-002	8.00223E-005	4	..........a	-327.66
	54	0.011	-8.30305E-002	-4.64439E-009	0.00000E+000	-8.30500E-002	-4.19978E-004	4	..........a	-327.66
	57	0.0116	-1.13130E-001	-5.10241E-009	0.00000E+000	-1.13050E-001	8.00223E-005	4	..........a	-327.66
	60	0.0122	-1.42930E-001	-5.57243E-009	0.00000E+000	-1.43050E-001	8.00223E-005	4	..........a	-327.66
	63	0.0128	-1.73030E-001	-6.05244E-009	0.00000E+000	-1.73050E-001	8.00223E-005	4	..........a	-327.66
	66	0.0134	-2.03030E-001	-6.53046E-009	0.00000E+000	-2.03050E-001	8.00223E-005	4	..........a	-327.66
	69	0.014	-2.32930E-001	-7.00748E-009	0.00000E+000	-2.33050E-001	8.00223E-005	4	..........a	-327.66
	72	0.0146	-2.62830E-001	-7.48650E-009	0.00000E+000	-2.63050E-001	8.00223E-005	4	..........a	-327.66
	75	0.0152	-2.92880E-001	-7.96752E-009	0.00000E+000	-2.93050E-001	8.00223E-005	4	..........a	-327.66
	78	0.0158	-3.23030E-001	-8.44754E-009	0.00000E+000	-3.23050E-001	8.00223E-005	4	..........a	-327.66
	81	0.0164	-3.52830E-001	-8.91755E-009	0.00000E+000	-3.53050E-001	8.00223E-005	4	..........a	-327.66
	84	0.017	-3.82930E-001	-9.38357E-009	0.00000E+000	-3.83050E-001	8.00223E-005	4	..........a	-327.66
	87	0.0176	-4.13030E-001	-9.84559E-009	0.00000E+000	-4.13050E-001	8.00223E-005	4	..........a	-327.66
	90	0.0182	-4.42930E-001	-1.03086E-008	0.00000E+000	-4.43050E-001	8.00223E-005	4	..........a	-327.66
	93	0.0188	-4.72930E-001	-1.07746E-008	0.00000E+000	-4.73050E-001	8.00223E-005	4	..........a	-327.66
	96	0.0194	-5.02930E-001	-1.12306E-008	0.00000E+000	-5.03050E-001	8.00223E-005	4	..........a	-327.66
	99	0.02	-5.33031E-001	-1.17077E-008	0.00000E+000	-5.33050E-001	8.00223E-005	4	..........a	-327.66
	102	0.0206	-5.62831E-001	-1.21897E-008	0.00000E+000	-5.63050E-001	8.00223E-005	4	..........a	-327.66
	105	0.0212	-5.92730E-001	-1.26917E-008	0.00000E+000	-5.93050E-001	8.00223E-005	4	..........a	-327.66
	108	0.0218	-5.82830E-001	-1.29397E-008	0.00000E+000	-5.83050E-001	8.00223E-005	4	..........a	-327.66
	111	0.0224	-5.52630E-001	-1.29397E-008	0.00000E+000	-5.53050E-001	8.00223E-005	4	..........a	-327.66
	114	0.023	-5.22730E-001	-1.28627E-008	0.00000E+000	-5.23050E-001	8.00223E-005	4	..........a	-327.66
	117	0.0236	-4.92730E-001	-1.27427E-008	0.00000E+000	-4.93050E-001	8.00223E-005	4	..........a	-327.66
	120	0.0242	-4.62930E-001	-1.25847E-008	0.00000E+000	-4.63050E-001	8.00223E-005	4	..........a	-327.66
	123	0.0248	-4.32930E-001	-1.24067E-008	0.00000E+000	-4.33050E-001	8.00223E-005	4	..........a	-327.66
	126	0.0254	-4.02930E-001	-1.22127E-008	0.00000E+000	-4.03050E-001	8.00223E-005	4	..........a	-327.66
	129	0.026	-3.72930E-001	-1.19997E-008	0.00000E+000	-3.73050E-001	8.00223E-005	4	..........a	-327.66
	132	0.0266	-3.42830E-001	-1.17747E-008	0.00000E+000	-3.43050E-001	8.00223E-005	4	..........a	-327.66
	135	0.0272	-3.12830E-001	-1.15437E-008	0.00000E+000	-3.13050E-001	8.00223E-005	4	..........a	-327.66
	138	0.0278	-2.82930E-001	-1.13066E-008	0.00000E+000	-2.83050E-001	8.00223E-005	4	..........a	-327.66
	141	0.0284	-2.52930E-001	-1.10606E-008	0.00000E+000	-2.53050E-001	-2.19978E-004	4	..........a	-327.66
	144	0.029	-2.22930E-001	-1.08076E-008	0.00000E+000	-2.23050E-001	8.00223E-005	4	..........a	-327.66
	147	0.0296	-1.93030E-001	-1.05436E-008	0.00000E+000	-1.93050E-001	8.00223E-005	4	..........a	-327.66
	150	0.0302	-1.62730E-001	-1.02796E-008	0.00000E+000	-1.63050E-001	8.00223E-005	4	..........a	-327.66
	153	0.0308	-1.33130E-001	-1.00126E-008	0.00000E+000	-1.33050E-001	8.00223E-005	4	..........a	-327.66
	156	0.0314	-1.02830E-001	-9.73459E-009	0.00000E+000	-1.03050E-001	8.00223E-005	4	..........a	-327.66
	159	0.032	-7.29305E-002	-9.45358E-009	0.00000E+000	-7.30500E-002	8.00223E-005	4	..........a	-327.66
	162	0.0326	-4.28305E-002	-9.17156E-009	0.00000E+000	-4.30500E-002	8.00223E-005	4	..........a	-327.66
	165	0.0332	-1.30305E-002	-8.87855E-009	0.00000E+000	-1.30500E-002	-2.19978E-004	4	..........a	-327.66
	168	0.0338	1.70695E-002	-8.58354E-009	0.00000E+000	1.69500E-002	8.00223E-005	4	..........a	-327.66
	171	0.0344	4.70195E-002	-8.28853E-009	0.00000E+000	4.69500E-002	8.00223E-005	4	..........a	-327.66
	174	0.035	7.70695E-002	-7.98652E-009	0.00000E+000	7.69500E-002	8.00223E-005	4	..........a	-327.66
	177	0.0356	1.07270E-001	-7.67551E-009	0.00000E+000	1.06950E-001	8.00223E-005	4	..........a	-327.66
	180	0.0362	1.37070E-001	-7.36550E-009	0.00000E+000	1.36950E-001	8.00223E-005	4	..........a	-327.66
	183	0.0368	1.67270E-001	-7.04748E-009	0.00000E+000	1.66950E-001	8.00223E-005	4	..........a	-327.66
	186	0.0374	1.97070E-001	-6.72447E-009	0.00000E+000	1.96950E-001	8.00223E-005	4	..........a	-327.66
	189	0.038	2.26970E-001	-6.39346E-009	0.00000E+000	2.26950E-001	8.00223E-005	4	..........a	-327.66
	192	0.0386	2.56970E-001	-6.05444E-009	0.00000E+000	2.56950E-001	8.00223E-005	4	..........a	-327.66
	195	0.0392	2.86870E-001	-5.70643E-009	0.00000E+000	2.86950E-001	8.00223E-005	4	..........a	-327.66
	198	0.0398	3.16770E-001	-5.35042E-009	0.00000E+000	3.16950E-001	8.00223E-005	4	..........a	-327.66
	201	0.0404	3.46870E-001	-4.98940E-009	0.00000E+000	3.46950E-001	8.00223E-005	4	..........a	-327.66
	204	0.041	3.77070E-001	-4.62639E-009	0.00000E+000	3.76950E-001	8.00223E-005	4	..........a	-327.66
	207	0.0416	4.06970E-001	-4.25038E-009	0.00000E+000	4.06950E-001	8.00223E-005	4	..........a	-327.66
	210	0.0422	4.36970E-001	-3.86936E-009	0.00000E+000	4.36950E-001	8.00223E-005	4	..........a	-327.66
	213	0.0428	4.66970E-001	-3.47835E-009	0.00000E+000	4.66950E-001	8.00223E-005	4	..........a	-327.66
	216	0.0434	4.97070E-001	-3.07933E-009	0.00000E+000	4.96950E-001	8.00223E-005	4	..........a	-327.66
	219	0.044	5.27070E-001	-2.66731E-009	0.00000E+000	5.26950E-001	8.00223E-005	4	..........a	-327.66
	222	0.0446	5.56870E-001	-2.23730E-009	0.00000E+000	5.56950E-001	8.00223E-005	4	..........a	-327.66
	225	0.0452	5.86969E-001	-1.79928E-009	0.00000E+000	5.86950E-001	8.00223E-005	4	..........a	-327.66
	228	0.0458	6.16969E-001	-1.34026E-009	0.00000E+000	6.16950E-001	8.00223E-005	4	..........a	-327.66
	231	0.0464	6.46869E-001	-8.62245E-010	0.00000E+000	6.46950E-001	8.00223E-005	4	..........a	-327.66
	234	0.047	6.76870E-001	-3.51226E-010	0.00000E+000	6.76950E-001	8.00223E-005	4	..........a	-327.66
	237	0.0476	7.06869E-001	1.63794E-010	0.00000E+000	7.06950E-001	1.80022E-004	4	..........a	-327.66
	240	0.0482	7.36969E-001	7.21815E-010	0.00000E+000	7.36950E-001	8.00223E-005	4	..........a	-327.66
	243	0.0488	7.66769E-001	1.31084E-009	0.00000E+000	7.66950E-001	8.00223E-005	4	..........a	-327.66
	246	0.0494	7.96669E-001	1.92986E-009	0.00000E+000	7.96950E-001	8.00223E-005	4	..........a	-327.66
CURVE2	TABLE
	Pt	T	Vf	Im	Vu	Sig	Ach	IERange	Over	Temp
	#	s	V vs. Ref.	A	V	V	V	#	bits	deg C
	247	0.0496	7.89970E-001	2.05087E-009	0.00000E+000	7.90000E-001	8.00223E-005	4	..........a	-327.66
	250	0.0502	7.59969E-001	2.22387E-009	0.00000E+000	7.60000E-001	8.00223E-005	4	..........a	-327.66
	253	0.0508	7.30069E-001	2.26087E-009	0.00000E+000	7.30000E-001	8.00223E-005	4	..........a	-327.66
	256	0.0514	6.99769E-001	2.22787E-009	0.00000E+000	7.00000E-001	8.00223E-005	4	..........a	-327.66
	259	0.052	6.69869E-001	2.14887E-009	0.00000E+000	6.70000E-001	8.00223E-005	4	..........a	-327.66
	262	0.0526	6.39969E-001	2.04087E-009	0.00000E+000	6.40000E-001	8.00223E-005	4	..........a	-327.66
	265	0.0532	6.10070E-001	1.90986E-009	0.00000E+000	6.10000E-001	8.00223E-005	4	..........a	-327.66
	268	0.0538	5.79969E-001	1.75786E-009	0.00000E+000	5.80000E-001	8.00223E-005	4	..........a	-327.66
	271	0.0544	5.49969E-001	1.59485E-009	0.00000E+000	5.50000E-001	8.00223E-005	4	..........a	-327.66
	274	0.055	5.19870E-001	1.41884E-009	0.00000E+000	5.20000E-001	8.00223E-005	4	..........a	-327.66
	277	0.0556	4.90070E-001	1.23484E-009	0.00000E+000	4.90000E-001	8.00223E-005	4	..........a	-327.66
	280	0.0562	4.60170E-001	1.03183E-009	0.00000E+000	4.60000E-001	8.00223E-005	4	..........a	-327.66
	283	0.0568	4.30170E-001	8.24819E-010	0.00000E+000	4.30000E-001	8.00223E-005	4	..........a	-327.66
	286	0.0574	4.00070E-001	6.03811E-010	0.00000E+000	4.00000E-001	8.00223E-005	4	..........a	-327.66
	289	0.058	3.69970E-001	3.71802E-010	0.00000E+000	3.70000E-001	8.00223E-005	4	..........a	-327.66
	292	0.0586	3.40070E-001	1.25792E-010	0.00000E+000	3.40000E-001	8.00223E-005	4	..........a	-327.66
	295	0.0592	3.09970E-001	-1.33217E-010	0.00000E+000	3.10000E-001	-4.19978E-004	4	..........a	-327.66
	298	0.0598	2.79970E-001	-4.07228E-010	0.00000E+000	2.80000E-001	8.00223E-005	4	..........a	-327.66
	301	0.0604	2.49970E-001	-6.92239E-010	0.00000E+000	2.50000E-001	8.00223E-005	4	..........a	-327.66
	304	0.061	2.20070E-001	-1.00225E-009	0.00000E+000	2.20000E-001	8.00223E-005	4	..........a	-327.66
	307	0.0616	1.90070E-001	-1.31826E-009	0.00000E+000	1.90000E-001	8.00223E-005	4	..........a	-327.66
	310	0.0622	1.59970E-001	-1.65628E-009	0.00000E+000	1.60000E-001	8.00223E-005	4	..........a	-327.66
	313	0.0628	1.30070E-001	-2.00329E-009	0.00000E+000	1.30000E-001	8.00223E-005	4	..........a	-327.66
	316	0.0634	1.00270E-001	-2.36230E-009	0.00000E+000	1.00000E-001	8.00223E-005	4	..........a	-327.66
	319	0.064	6.99695E-002	-2.73832E-009	0.00000E+000	7.00000E-002	8.00223E-005	4	..........a	-327.66
	322	0.0646	4.01695E-002	-3.11233E-009	0.00000E+000	4.00000E-002	8.00223E-005	4	..........a	-327.66
	325	0.0652	1.00695E-002	-3.49235E-009	0.00000E+000	1.00000E-002	8.00223E-005	4	..........a	-327.66
	328	0.0658	-1.98305E-002	-3.86836E-009	0.00000E+000	-2.00000E-002	8.00223E-005	4	..........a	-327.66
	331	0.0664	-5.00305E-002	-4.24038E-009	0.00000E+000	-5.00000E-002	8.00223E-005	4	..........a	-327.66
	334	0.067	-7.99305E-002	-4.61039E-009	0.00000E+000	-8.00000E-002	8.00223E-005	4	..........a	-327.66
	337	0.0676	-1.10030E-001	-4.97040E-009	0.00000E+000	-1.10000E-001	8.00223E-005	4	..........a	-327.66
	340	0.0682	-1.39930E-001	-5.32042E-009	0.00000E+000	-1.40000E-001	8.00223E-005	4	..........a	-327.66
	343	0.0688	-1.69980E-001	-5.66143E-009	0.00000E+000	-1.70000E-001	8.00223E-005	4	..........a	-327.66
	346	0.0694	-1.99830E-001	-6.00244E-009	0.00000E+000	-2.00000E-001	8.00223E-005	4	..........a	-327.66
	349	0.07	-2.29930E-001	-6.33146E-009	0.00000E+000	-2.30000E-001	8.00223E-005	4	..........a	-327.66
	352	0.0706	-2.59830E-001	-6.65847E-009	0.00000E+000	-2.60000E-001	8.00223E-005	4	..........a	-327.66
[...]
	2616	0.5234	-4.99930E-001	-5.50242E-009	0.00000E+000	-5.00000E-001	8.00223E-005	4	..........a	-327.66
	2619	0.524	-5.29930E-001	-5.85044E-009	0.00000E+000	-5.30000E-001	8.00223E-005	4	..........a	-327.66
	2622	0.5246	-5.59830E-001	-6.21445E-009	0.00000E+000	-5.60000E-001	8.00223E-005	4	..........a	-327.66
	2625	0.5252	-5.89930E-001	-6.58947E-009	0.00000E+000	-5.90000E-001	8.00223E-005	4	..........a	-327.66
	2628	0.5258	-5.79830E-001	-6.75747E-009	0.00000E+000	-5.80000E-001	8.00223E-005	4	..........a	-327.66
	2631	0.5264	-5.49931E-001	-6.72047E-009	0.00000E+000	-5.50000E-001	8.00223E-005	4	..........a	-327.66
	2634	0.527	-5.19830E-001	-6.63047E-009	0.00000E+000	-5.20000E-001	8.00223E-005	4	..........a	-327.66
	2637	0.5276	-4.89930E-001	-6.49646E-009	0.00000E+000	-4.90000E-001	8.00223E-005	4	..........a	-327.66
	2640	0.5282	-4.59730E-001	-6.35846E-009	0.00000E+000	-4.60000E-001	8.00223E-005	4	..........a	-327.66
	2643	0.5288	-4.29930E-001	-6.19645E-009	0.00000E+000	-4.30000E-001	8.00223E-005	4	..........a	-327.66
	2646	0.5294	-3.99930E-001	-6.01644E-009	0.00000E+000	-4.00000E-001	8.00223E-005	4	..........a	-327.66
	2649	0.53	-3.69930E-001	-5.83244E-009	0.00000E+000	-3.70000E-001	8.00223E-005	4	..........a	-327.66
	2652	0.5306	-3.39730E-001	-5.63843E-009	0.00000E+000	-3.40000E-001	8.00223E-005	4	..........a	-327.66
	2655	0.5312	-3.09930E-001	-5.43942E-009	0.00000E+000	-3.10000E-001	8.00223E-005	4	..........a	-327.66
	2658	0.5318	-2.79830E-001	-5.22741E-009	0.00000E+000	-2.80000E-001	8.00223E-005	4	..........a	-327.66
	2661	0.5324	-2.50030E-001	-5.01540E-009	0.00000E+000	-2.50000E-001	8.00223E-005	4	..........a	-327.66
	2664	0.533	-2.19830E-001	-4.79240E-009	0.00000E+000	-2.20000E-001	8.00223E-005	4	..........a	-327.66
	2667	0.5336	-1.89930E-001	-4.57039E-009	0.00000E+000	-1.90000E-001	8.00223E-005	4	..........a	-327.66
	2670	0.5342	-1.60030E-001	-4.34438E-009	0.00000E+000	-1.60000E-001	-3.19978E-004	4	..........a	-327.66
	2673	0.5348	-1.29930E-001	-4.11137E-009	0.00000E+000	-1.30000E-001	8.00223E-005	4	..........a	-327.66
	2676	0.5354	-9.98305E-002	-3.87436E-009	0.00000E+000	-1.00000E-001	8.00223E-005	4	..........a	-327.66
	2679	0.536	-6.99305E-002	-3.63635E-009	0.00000E+000	-7.00000E-002	8.00223E-005	4	..........a	-327.66
	2682	0.5366	-3.99305E-002	-3.39234E-009	0.00000E+000	-4.00000E-002	8.00223E-005	4	..........a	-327.66
	2685	0.5372	-9.93048E-003	-3.14233E-009	0.00000E+000	-1.00000E-002	8.00223E-005	4	..........a	-327.66
	2688	0.5378	2.01695E-002	-2.89032E-009	0.00000E+000	2.00000E-002	8.00223E-005	4	..........a	-327.66
	2691	0.5384	5.00695E-002	-2.63931E-009	0.00000E+000	5.00000E-002	8.00223E-005	4	..........a	-327.66
	2694	0.539	8.00695E-002	-2.37430E-009	0.00000E+000	8.00000E-002	8.00223E-005	4	..........a	-327.66
	2697	0.5396	1.09970E-001	-2.11129E-009	0.00000E+000	1.10000E-001	8.00223E-005	4	..........a	-327.66
	2700	0.5402	1.40070E-001	-1.84028E-009	0.00000E+000	1.40000E-001	8.00223E-005	4	..........a	-327.66
	2703	0.5408	1.69870E-001	-1.56327E-009	0.00000E+000	1.70000E-001	8.00223E-005	4	..........a	-327.66
	2706	0.5414	2.00070E-001	-1.28126E-009	0.00000E+000	2.00000E-001	8.00223E-005	4	..........a	-327.66
	2709	0.542	2.29970E-001	-9.89250E-010	0.00000E+000	2.30000E-001	-3.19978E-004	4	..........a	-327.66
	2712	0.5426	2.60170E-001	-6.94239E-010	0.00000E+000	2.60000E-001	8.00223E-005	4	..........a	-327.66
	2715	0.5432	2.89970E-001	-3.90227E-010	0.00000E+000	2.90000E-001	-2.19978E-004	4	..........a	-327.66
	2718	0.5438	3.19870E-001	-7.22151E-011	0.00000E+000	3.20000E-001	8.00223E-005	4	..........a	-327.66
	2721	0.5444	3.49920E-001	2.56797E-010	0.00000E+000	3.50000E-001	8.00223E-005	4	..........a	-327.66
	2724	0.545	3.80070E-001	5.85810E-010	0.00000E+000	3.80000E-001	8.00223E-005	4	..........a	-327.66
	2727	0.5456	4.09870E-001	9.25823E-010	0.00000E+000	4.10000E-001	8.00223E-005	4	..........a	-327.66
	2730	0.5462	4.40020E-001	1.27784E-009	0.00000E+000	4.40000E-001	8.00223E-005	4	..........a	-327.66
	2733	0.5468	4.69870E-001	1.63285E-009	0.00000E+000	4.70000E-001	8.00223E-005	4	..........a	-327.66
	2736	0.5474	5.00069E-001	2.00586E-009	0.00000E+000	5.00000E-001	8.00223E-005	4	..........a	-327.66
	2739	0.548	5.30069E-001	2.38388E-009	0.00000E+000	5.30000E-001	8.00223E-005	4	..........a	-327.66
	2742	0.5486	5.60070E-001	2.77989E-009	0.00000E+000	5.60000E-001	8.00223E-005	4	..........a	-327.66
	2745	0.5492	5.89869E-001	3.19391E-009	0.00000E+000	5.90000E-001	8.00223E-005	4	..........a	-327.66
	2748	0.5498	6.19869E-001	3.62693E-009	0.00000E+000	6.20000E-001	8.00223E-005	4	..........a	-327.66
	2751	0.5504	6.49870E-001	4.07194E-009	0.00000E+000	6.50000E-001	8.00223E-005	4	..........a	-327.66
	2754	0.551	6.79969E-001	4.54996E-009	0.00000E+000	6.80000E-001	8.00223E-005	4	..........a	-327.66
	2757	0.5516	7.09870E-001	5.05298E-009	0.00000E+000	7.10000E-001	8.00223E-005	4	..........a	-327.66
	2760	0.5522	7.39869E-001	5.57700E-009	0.00000E+000	7.40000E-001	8.00223E-005	4	..........a	-327.66
	2763	0.5528	7.69769E-001	6.13902E-009	0.00000E+000	7.70000E-001	8.00223E-005	4	..........a	-327.66
	2766	0.5534	7.99869E-001	6.73205E-009	0.00000E+000	8.00000E-001	8.00223E-005	4	..........a	-327.66
CURVE11	TABLE
	Pt	T	Vf	Im	Vu	Sig	Ach	IERange	Over	Temp
	#	s	V vs. Ref.	A	V	V	V	#	bits	deg C
	2767	0.5536	7.89869E-001	6.82805E-009	0.00000E+000	7.90000E-001	-3.19978E-004	4	..........a	-327.66
	2768	0.5538	7.79869E-001	6.89005E-009	0.00000E+000	7.80000E-001	8.00223E-005	4	..........a	-327.66
	2769	0.554	7.69870E-001	6.93805E-009	0.00000E+000	7.70000E-001	8.00223E-005	4	..........a	-327.66
	2770	0.5542	7.59769E-001	6.96505E-009	0.00000E+000	7.60000E-001	8.00223E-005	4	..........a	-327.66
	2771	0.5544	7.49969E-001	6.97406E-009	0.00000E+000	7.50000E-001	8.00223E-005	4	..........a	-327.66
	2772	0.5546	7.39969E-001	6.97906E-009	0.00000E+000	7.40000E-001	8.00223E-005	4	..........a	-327.66
	2773	0.5548	7.29869E-001	6.97106E-009	0.00000E+000	7.30000E-001	8.00223E-005	4	..........a	-327.66
	2774	0.555	7.19819E-001	6.95405E-009	0.00000E+000	7.20000E-001	8.00223E-005	4	..........a	-327.66
	2775	0.5552	7.09870E-001	6.93205E-009	0.00000E+000	7.10000E-001	8.00223E-005	4	..........a	-327.66
	2776	0.5554	6.99869E-001	6.90705E-009	0.00000E+000	7.00000E-001	8.00223E-005	4	..........a	-327.66
	2777	0.5556	6.89969E-001	6.87405E-009	0.00000E+000	6.90000E-001	8.00223E-005	4	..........a	-327.66
	2778	0.5558	6.79869E-001	6.83705E-009	0.00000E+000	6.80000E-001	8.00223E-005	4	..........a	-327.66
	2779	0.556	6.69969E-001	6.79405E-009	0.00000E+000	6.70000E-001	8.00223E-005	4	..........a	-327.66
	2780	0.5562	6.59869E-001	6.74605E-009	0.00000E+000	6.60000E-001	8.00223E-005	4	..........a	-327.66
	2781	0.5564	6.49969E-001	6.70204E-009	0.00000E+000	6.50000E-001	8.00223E-005	4	..........a	-327.66
	2782	0.5566	6.39769E-001	6.65204E-009	0.00000E+000	6.40000E-001	-3.19978E-004	4	..........a	-327.66
	2783	0.5568	6.29869E-001	6.59204E-009	0.00000E+000	6.30000E-001	8.00223E-005	4	..........a	-327.66
	2784	0.557	6.19769E-001	6.53804E-009	0.00000E+000	6.20000E-001	8.00223E-005	4	..........a	-327.66
	2785	0.5572	6.09969E-001	6.48404E-009	0.00000E+000	6.10000E-001	8.00223E-005	4	..........a	-327.66
	2786	0.5574	5.99869E-001	6.42103E-009	0.00000E+000	6.00000E-001	8.00223E-005	4	..........a	-327.66
	2787	0.5576	5.89969E-001	6.36203E-009	0.00000E+000	5.90000E-001	8.00223E-005	4	..........a	-327.66
	2788	0.5578	5.80169E-001	6.29703E-009	0.00000E+000	5.80000E-001	8.00223E-005	4	..........a	-327.66
	2789	0.558	5.69969E-001	6.23103E-009	0.00000E+000	5.70000E-001	8.00223E-005	4	..........a	-327.66
	2790	0.5582	5.59869E-001	6.16702E-009	0.00000E+000	5.60000E-001	8.00223E-005	4	..........a	-327.66
	2791	0.5584	5.49969E-001	6.09902E-009	0.00000E+000	5.50000E-001	8.00223E-005	4	..........a	-327.66
	2792	0.5586	5.39769E-001	6.02902E-009	0.00000E+000	5.40000E-001	8.00223E-005	4	..........a	-327.66
	2793	0.5588	5.29970E-001	5.95402E-009	0.00000E+000	5.30000E-001	8.00223E-005	4	..........a	-327.66
	2794	0.559	5.19870E-001	5.88101E-009	0.00000E+000	5.20000E-001	8.00223E-005	4	..........a	-327.66
	2795	0.5592	5.09870E-001	5.81301E-009	0.00000E+000	5.10000E-001	8.00223E-005	4	..........a	-327.66
	2796	0.5594	5.00219E-001	5.73301E-009	0.00000E+000	5.00000E-001	8.00223E-005	4	..........a	-327.66
	2797	0.5596	4.89970E-001	5.65000E-009	0.00000E+000	4.90000E-001	8.00223E-005	4	..........a	-327.66
	2798	0.5598	4.79870E-001	5.58000E-009	0.00000E+000	4.80000E-001	8.00223E-005	4	..........a	-327.66
	2799	0.56	4.69970E-001	5.50200E-009	0.00000E+000	4.70000E-001	8.00223E-005	4	..........a	-327.66
	2800	0.5602	4.60070E-001	5.42200E-009	0.00000E+000	4.60000E-001	8.00223E-005	4	..........a	-327.66