File: example_project/raw_outputs/20240321_ZQ_GM0016_HL03_E11_CV50.DTA
EXPLAIN
TAG	CV
TITLE	LABEL	Cyclic Voltammetry	Test &Identifier
DATE	LABEL	3/21/2024	Date
TIME	LABEL	18:54:49	Time
NOTES	NOTES	1	&Notes...

PSTAT	PSTAT	REF600P-43058	Potentiostat
VINIT	POTEN	0.00000E+000	T	Initial &E (V)
VLIMIT1	POTEN	-6.00000E-001	F	Scan Limit &1 (V)
VLIMIT2	POTEN	8.00000E-001	F	Scan Limit &2 (V)
VFINAL	POTEN	0.00000E+000	T	Final &E (V)
SCANRATE	QUANT	4.99999E+001	&Scan Rate (mV/s)
STEPSIZE	QUANT	1.00000E+001	St&ep Size (mV)
CYCLES	IQUANT	4	C&ycles (#)
IMODE	SELECTOR	1	I/E Range &Mode
IRANGE	QUANT	1.00000E-005	&Max Current (mA)
AREA	QUANT	1.00000E+000	Electrode &Area (cm^2)
ELECTRODETYPE	SELECTOR	0	Electrode Type
STRIPPING	TOGGLE	F	Used for Stripping
POLARITY	TOGGLE	F	Signal Polarity
CONDIT	TWOPARAM	F	1.50000E+001	0.00000E+000	Conditionin&g	Time(s)	E(V)
DELAY	TWOPARAM	T	1.00000E+001	0.00000E+000	Init. De&lay	Time(s)	Stab.(mV/s)
EQDELAY	QUANT	1.00000E+001	Equil. &Time (s)
IRCOMP	SELECTOR	0	IRCom&p
PFCOR	QUANT	5.00000E+001	PF Corr. (ohm)
SAMPLINGMODE	SELECTOR	1	Sampling &Mode
OCVCURVE	TABLE	39
	Pt	T	Vf	Vm	Ach	Over	Temp
	#	s	V vs. Ref.	V	V	bits	deg C
	0	0.258333	1.62218E-001	1.62218E-001	2.36556E-004	..........a	-327.66
	1	0.516667	1.62227E-001	1.62673E-001	2.53822E-004	..........a	-327.66
	2	0.775	1.62282E-001	1.63223E-001	2.38822E-004	..........a	-327.66
	3	1.03333	1.62449E-001	1.63829E-001	2.50289E-004	..........a	-327.66
	4	1.29167	1.62769E-001	1.64452E-001	2.52556E-004	..........a	-327.66
	5	1.55	1.63231E-001	1.65088E-001	2.56822E-004	..........a	-327.66
	6	1.80833	1.63790E-001	1.65733E-001	2.54356E-004	..........a	-327.66
	7	2.06667	1.64403E-001	1.66389E-001	2.48556E-004	..........a	-327.66
	8	2.325	1.65039E-001	1.67050E-001	2.50556E-004	..........a	-327.66
	9	2.58333	1.65687E-001	1.67701E-001	2.54556E-004	..........a	-327.66
	10	2.84167	1.66340E-001	1.68359E-001	2.53556E-004	..........a	-327.66
	11	3.1	1.66995E-001	1.69013E-001	2.54156E-004	..........a	-327.66
	12	3.35833	1.67651E-001	1.69668E-001	2.48689E-004	..........a	-327.66
	13	3.61667	1.68307E-001	1.70305E-001	2.56222E-004	..........a	-327.66
	14	3.875	1.68960E-001	1.70964E-001	2.45689E-004	..........a	-327.66
	15	4.13333	1.69611E-001	1.71611E-001	2.50022E-004	..........a	-327.66
	16	4.39167	1.70261E-001	1.72259E-001	2.44089E-004	..........a	-327.66
	17	4.65	1.70911E-001	1.72900E-001	2.45489E-004	..........a	-327.66
	18	4.90833	1.71559E-001	1.73543E-001	2.61422E-004	..........a	-327.66
	19	5.16667	1.72206E-001	1.74181E-001	2.67822E-004	..........a	-327.66
	20	5.425	1.72850E-001	1.74821E-001	2.58022E-004	..........a	-327.66
	21	5.68333	1.73491E-001	1.75447E-001	2.49022E-004	..........a	-327.66
	22	5.94167	1.74130E-001	1.76085E-001	2.65822E-004	..........a	-327.66
	23	6.2	1.74767E-001	1.76716E-001	2.38156E-004	..........a	-327.66
	24	6.45833	1.75401E-001	1.77342E-001	2.39089E-004	..........a	-327.66
	25	6.71667	1.76033E-001	1.77963E-001	2.39156E-004	..........a	-327.66
	26	6.975	1.76664E-001	1.78586E-001	2.41889E-004	..........a	-327.66
	27	7.23333	1.77291E-001	1.79205E-001	2.48956E-004	..........a	-327.66
	28	7.49167	1.77915E-001	1.79826E-001	2.42422E-004	..........a	-327.66
	29	7.75	1.78536E-001	1.80435E-001	2.48489E-004	..........a	-327.66
	30	8.00833	1.79156E-001	1.81041E-001	2.55622E-004	..........a	-327.66
	31	8.26667	1.79772E-001	1.81651E-001	2.46622E-004	..........a	-327.66
	32	8.525	1.80385E-001	1.82256E-001	2.51889E-004	..........a	-327.66
	33	8.78333	1.80995E-001	1.82868E-001	2.43556E-004	..........a	-327.66
	34	9.04167	1.81603E-001	1.83462E-001	2.48756E-004	..........a	-327.66
	35	9.3	1.82209E-001	1.84060E-001	2.48289E-004	..........a	-327.66
	36	9.5583	1.82813E-001	1.84654E-001	2.43756E-004	..........a	-327.66
	37	9.8167	1.83414E-001	1.85246E-001	2.50022E-004	..........a	-327.66
	38	10.075	1.84011E-001	1.85828E-001	2.51022E-004	..........a	-327.66
EOC	QUANT	0.1840114	Open Circuit (V)
PSTATMODEL	IQUANT	7	Pstat Model
PSTATSECTION	LABEL	REF600P-43058	Pstat Section
PSTATSERIALNO	LABEL	43058	Pstat Serial Number
CTRLMODE	IQUANT	1	Control Mode
ELECTROMETER	IQUANT	0	RE=0 or CS=1
IESTAB	IQUANT	2	I/E Stability
CASPEED	IQUANT	4	Control Amp Speed
CONVENTION	IQUANT	1	Current Convention
ICHRANGE	IQUANT	2	Ich Range
ICHRANGEMODE	TOGGLE	F	Ich Auto Range
ICHOFFSETENABLE	TOGGLE	F	Ich Offset Enable
ICHOFFSET	QUANT	0	Ich Offset (V)
ICHFILTER	IQUANT	2	Ich Filter
VCHRANGE	IQUANT	2	Vch Range
VCHRANGEMODE	TOGGLE	F	Vch Auto Range
VCHOFFSETENABLE	TOGGLE	F	Vch Offset Enable
VCHOFFSET	QUANT	0	Vch Offset (V)
VCHFILTER	IQUANT	2	Vch Filter
ACHRANGE	IQUANT	2	Ach Range
ACHOFFSETENABLE	TOGGLE	F	Ach Offset Enable
ACHOFFSET	QUANT	0	Ach Offset (V)
ACHFILTER	IQUANT	1	Ach Filter
IERANGELOWERLIMIT	IQUANT	1	I/E Range Lower Limit
IERANGEMODE	TOGGLE	F	I/E AutoRange
IERANGE	IQUANT	4	I/E Range
POSFEEDENABLE	TOGGLE	F	Positive Feedback IR Comp
POSFEEDRESISTANCE	QUANT	0	Positive Feedback Resistance (ohm)
ACHSELECT	IQUANT	4	Ach Select
SENSECABLEID	IQUANT	7	Sense Cable ID
PWRCABLEID	IQUANT	7	Power Cable ID
DCCALDATE	LABEL	12/18/2023	DC Calibration Date
ACCALDATE	LABEL	12/18/2023	AC Calibration Date
THERMOSELECT	IQUANT	1	Thermo Select
FRAMEWORKVERSION	LABEL	7.8.4	Framework Version
INSTRUMENTVERSION	LABEL	4.42	Instrument Version
CURVE1	TABLE
	Pt	T	Vf	Im	Vu	Sig	Ach	IERange	Over	Temp
	#	s	V vs. Ref.	A	V	V	V	#	bits	deg C
	0	0.2	1.84032E-001	1.61254E-011	0.00000E+000	1.84000E-001	1.01782E-003	4	..........a	-327.66
	3	0.8	1.54063E-001	-5.73754E-011	0.00000E+000	1.54000E-001	1.00092E-003	4	..........a	-327.66
	6	1.4	1.24009E-001	-9.15567E-011	0.00000E+000	1.24000E-001	1.03822E-003	4	..........a	-327.66
	9	2	9.39756E-002	-1.15322E-010	0.00000E+000	9.40000E-002	1.02452E-003	4	..........a	-327.66
	12	2.6	6.39521E-002	-1.35062E-010	0.00000E+000	6.40000E-002	1.01432E-003	4	..........a	-327.66
	15	3.2	3.40649E-002	-1.51950E-010	0.00000E+000	3.40000E-002	1.00032E-003	4	..........a	-327.66
	18	3.8	4.07464E-003	-1.68242E-010	0.00000E+000	4.00000E-003	1.02592E-003	4	..........a	-327.66
	21	4.4	-2.60108E-002	-1.84754E-010	0.00000E+000	-2.60000E-002	1.00632E-003	4	..........a	-327.66
	24	5	-5.60269E-002	-2.02011E-010	0.00000E+000	-5.60000E-002	1.02552E-003	4	..........a	-327.66
	27	5.6	-8.59131E-002	-2.21795E-010	0.00000E+000	-8.60000E-002	1.03182E-003	4	..........a	-327.66
	30	6.2	-1.15949E-001	-2.41796E-010	0.00000E+000	-1.16000E-001	1.01272E-003	4	..........a	-327.66
	33	6.8	-1.45946E-001	-2.63038E-010	0.00000E+000	-1.46000E-001	1.03032E-003	4	..........a	-327.66
	36	7.4	-1.75951E-001	-2.92361E-010	0.00000E+000	-1.76000E-001	1.01012E-003	4	..........a	-327.66
	39	8	-2.05923E-001	-3.15703E-010	0.00000E+000	-2.06000E-001	9.83222E-004	4	..........a	-327.66
	42	8.6	-2.35861E-001	-3.44762E-010	0.00000E+000	-2.36000E-001	1.01772E-003	4	..........a	-327.66
	45	9.2	-2.65892E-001	-3.77025E-010	0.00000E+000	-2.66000E-001	1.01232E-003	4	..........a	-327.66
	48	9.8	-2.95925E-001	-4.16154E-010	0.00000E+000	-2.96000E-001	1.01182E-003	4	..........a	-327.66
	51	10.4	-3.25904E-001	-4.53580E-010	0.00000E+000	-3.26000E-001	1.00202E-003	4	..........a	-327.66
	54	11	-3.55886E-001	-4.95380E-010	0.00000E+000	-3.56000E-001	1.01572E-003	4	..........a	-327.66
	57	11.6	-3.85953E-001	-5.46001E-010	0.00000E+000	-3.86000E-001	1.00622E-003	4	..........a	-327.66
	60	12.2	-4.15869E-001	-5.95395E-010	0.00000E+000	-4.16000E-001	9.95022E-004	4	..........a	-327.66
	63	12.8	-4.45897E-001	-6.50891E-010	0.00000E+000	-4.46000E-001	9.78522E-004	4	..........a	-327.66
	66	13.4	-4.75858E-001	-7.12217E-010	0.00000E+000	-4.76000E-001	1.02732E-003	4	..........a	-327.66
	69	14	-5.05895E-001	-7.80048E-010	0.00000E+000	-5.06000E-001	1.00902E-003	4	..........a	-327.66
	72	14.6	-5.35881E-001	-8.57701E-010	0.00000E+000	-5.36000E-001	1.01232E-003	4	..........a	-327.66
	75	15.2	-5.65846E-001	-9.44727E-010	0.00000E+000	-5.66000E-001	1.00782E-003	4	..........a	-327.66
	78	15.8	-5.95942E-001	-1.05103E-009	0.00000E+000	-5.96000E-001	1.02912E-003	4	..........a	-327.66
	81	16.4	-5.65875E-001	-6.24089E-010	0.00000E+000	-5.66000E-001	9.95722E-004	4	..........a	-327.66
	84	17	-5.35936E-001	-3.95482E-010	0.00000E+000	-5.36000E-001	1.00642E-003	4	..........a	-327.66
	87	17.6	-5.05907E-001	-2.41315E-010	0.00000E+000	-5.06000E-001	9.92522E-004	4	..........a	-327.66
	90	18.2	-4.75885E-001	-1.29403E-010	0.00000E+000	-4.76000E-001	1.00632E-003	4	..........a	-327.66
	93	18.8	-4.45895E-001	-4.31339E-011	0.00000E+000	-4.46000E-001	9.83822E-004	4	..........a	-327.66
	96	19.4	-4.15915E-001	2.50048E-011	0.00000E+000	-4.16000E-001	1.02442E-003	4	..........a	-327.66
	99	20	-3.85984E-001	8.04239E-011	0.00000E+000	-3.86000E-001	1.01942E-003	4	..........a	-327.66
	102	20.6	-3.55943E-001	1.26507E-010	0.00000E+000	-3.56000E-001	1.02642E-003	4	..........a	-327.66
	105	21.2	-3.25917E-001	1.62706E-010	0.00000E+000	-3.26000E-001	1.02782E-003	4	..........a	-327.66
	108	21.8	-2.95898E-001	1.94924E-010	0.00000E+000	-2.96000E-001	1.02362E-003	4	..........a	-327.66
	111	22.4	-2.65901E-001	2.17931E-010	0.00000E+000	-2.66000E-001	1.00472E-003	4	..........a	-327.66
	114	23	-2.36009E-001	2.35867E-010	0.00000E+000	-2.36000E-001	1.03432E-003	4	..........a	-327.66
	117	23.6	-2.05973E-001	2.52813E-010	0.00000E+000	-2.06000E-001	1.03632E-003	4	..........a	-327.66
	120	24.2	-1.76055E-001	2.63155E-010	0.00000E+000	-1.76000E-001	1.00872E-003	4	..........a	-327.66
	123	24.8	-1.46021E-001	2.71068E-010	0.00000E+000	-1.46000E-001	1.05112E-003	4	..........a	-327.66
	126	25.4	-1.15946E-001	2.77300E-010	0.00000E+000	-1.16000E-001	1.03562E-003	4	..........a	-327.66
	129	26	-8.59262E-002	2.83117E-010	0.00000E+000	-8.60000E-002	1.01922E-003	4	..........a	-327.66
	132	26.6	-5.60064E-002	2.86550E-010	0.00000E+000	-5.60000E-002	1.00882E-003	4	..........a	-327.66
	135	27.2	-2.60623E-002	2.89934E-010	0.00000E+000	-2.60000E-002	1.03002E-003	4	..........a	-327.66
	138	27.8	3.99374E-003	2.92686E-010	0.00000E+000	4.00000E-003	1.04482E-003	4	..........a	-327.66
	141	28.4	3.40472E-002	2.95911E-010	0.00000E+000	3.40000E-002	9.78522E-004	4	..........a	-327.66
	144	29	6.40064E-002	2.97912E-010	0.00000E+000	6.40000E-002	9.93522E-004	4	..........a	-327.66
	147	29.6	9.39292E-002	3.00604E-010	0.00000E+000	9.40000E-002	9.99622E-004	4	..........a	-327.66
	150	30.2	1.23994E-001	3.03687E-010	0.00000E+000	1.24000E-001	1.03452E-003	4	..........a	-327.66
	153	30.8	1.53988E-001	3.09771E-010	0.00000E+000	1.54000E-001	1.01092E-003	4	..........a	-327.66
	156	31.4	1.83983E-001	3.15413E-010	0.00000E+000	1.84000E-001	1.00822E-003	4	..........a	-327.66
	159	32	2.13973E-001	3.23362E-010	0.00000E+000	2.14000E-001	1.02802E-003	4	..........a	-327.66
	162	32.6	2.44032E-001	3.32389E-010	0.00000E+000	2.44000E-001	1.02662E-003	4	..........a	-327.66
	165	33.2	2.73981E-001	3.43020E-010	0.00000E+000	2.74000E-001	1.00882E-003	4	..........a	-327.66
	168	33.8	3.03994E-001	3.52659E-010	0.00000E+000	3.04000E-001	1.01782E-003	4	..........a	-327.66
	171	34.4	3.33955E-001	3.65708E-010	0.00000E+000	3.34000E-001	1.03222E-003	4	..........a	-327.66
	174	35	3.64034E-001	3.80007E-010	0.00000E+000	3.64000E-001	1.04942E-003	4	..........a	-327.66
	177	35.6	3.94012E-001	3.94013E-010	0.00000E+000	3.94000E-001	9.90622E-004	4	..........a	-327.66
	180	36.2	4.24004E-001	4.10951E-010	0.00000E+000	4.24000E-001	1.00582E-003	4	..........a	-327.66
	183	36.8	4.53907E-001	4.30512E-010	0.00000E+000	4.54000E-001	1.01362E-003	4	..........a	-327.66
	186	37.4	4.83995E-001	4.52353E-010	0.00000E+000	4.84000E-001	1.00562E-003	4	..........a	-327.66
	189	38	5.13988E-001	4.75275E-010	0.00000E+000	5.14000E-001	9.90922E-004	4	..........a	-327.66
	192	38.6	5.43856E-001	5.03977E-010	0.00000E+000	5.44000E-001	9.85822E-004	4	..........a	-327.66
	195	39.2	5.73923E-001	5.33077E-010	0.00000E+000	5.74000E-001	9.92022E-004	4	..........a	-327.66
	198	39.8	6.04097E-001	5.63567E-010	0.00000E+000	6.04000E-001	1.02732E-003	4	..........a	-327.66
	201	40.4	6.33916E-001	5.96117E-010	0.00000E+000	6.34000E-001	1.00632E-003	4	..........a	-327.66
	204	41	6.63910E-001	6.36399E-010	0.00000E+000	6.64000E-001	1.02742E-003	4	..........a	-327.66
	207	41.6	6.93934E-001	6.66229E-010	0.00000E+000	6.94000E-001	9.78522E-004	4	..........a	-327.66
	210	42.2	7.24009E-001	7.09194E-010	0.00000E+000	7.24000E-001	1.00392E-003	4	..........a	-327.66
	213	42.8	7.53939E-001	7.61141E-010	0.00000E+000	7.54000E-001	1.00322E-003	4	..........a	-327.66
	216	43.4	7.83878E-001	8.24440E-010	0.00000E+000	7.84000E-001	1.00852E-003	4	..........a	-327.66
	218	43.8	8.03985E-001	8.76391E-010	0.00000E+000	8.04000E-001	1.01412E-003	4	..........a	-327.66
CURVE2	TABLE
	Pt	T	Vf	Im	Vu	Sig	Ach	IERange	Over	Temp
	#	s	V vs. Ref.	A	V	V	V	#	bits	deg C
	219	44	7.89867E-001	6.58465E-010	0.00000E+000	7.90000E-001	9.86822E-004	4	..........a	-327.66
	222	44.6	7.59935E-001	3.95235E-010	0.00000E+000	7.60000E-001	1.03502E-003	4	..........a	-327.66
	225	45.2	7.29928E-001	2.50419E-010	0.00000E+000	7.30000E-001	9.94422E-004	4	..........a	-327.66
	228	45.8	6.99994E-001	1.58086E-010	0.00000E+000	7.00000E-001	1.00392E-003	4	..........a	-327.66
	231	46.4	6.69874E-001	8.06169E-011	0.00000E+000	6.70000E-001	9.99422E-004	4	..........a	-327.66
	234	47	6.39886E-001	2.59278E-011	0.00000E+000	6.40000E-001	1.01302E-003	4	..........a	-327.66
	237	47.6	6.09957E-001	-2.00720E-011	0.00000E+000	6.10000E-001	1.01042E-003	4	..........a	-327.66
	240	48.2	5.80014E-001	-5.56943E-011	0.00000E+000	5.80000E-001	1.02312E-003	4	..........a	-327.66
	243	48.8	5.49971E-001	-8.61575E-011	0.00000E+000	5.50000E-001	1.03912E-003	4	..........a	-327.66
	246	49.4	5.19963E-001	-1.12848E-010	0.00000E+000	5.20000E-001	9.97122E-004	4	..........a	-327.66
	249	50	4.89979E-001	-1.34972E-010	0.00000E+000	4.90000E-001	9.91122E-004	4	..........a	-327.66
	252	50.6	4.60006E-001	-1.55920E-010	0.00000E+000	4.60000E-001	1.01252E-003	4	..........a	-327.66
	255	51.2	4.29918E-001	-1.74089E-010	0.00000E+000	4.30000E-001	1.00852E-003	4	..........a	-327.66
	258	51.8	3.99958E-001	-1.90500E-010	0.00000E+000	4.00000E-001	1.02442E-003	4	..........a	-327.66
	261	52.4	3.69984E-001	-2.05985E-010	0.00000E+000	3.70000E-001	9.86522E-004	4	..........a	-327.66
	264	53	3.40044E-001	-2.20346E-010	0.00000E+000	3.40000E-001	1.03162E-003	4	..........a	-327.66
	267	53.6	3.09973E-001	-2.33826E-010	0.00000E+000	3.10000E-001	9.93322E-004	4	..........a	-327.66
	270	54.2	2.79989E-001	-2.46914E-010	0.00000E+000	2.80000E-001	1.01382E-003	4	..........a	-327.66
	273	54.8	2.50018E-001	-2.59115E-010	0.00000E+000	2.50000E-001	9.85722E-004	4	..........a	-327.66
	276	55.4	2.20071E-001	-2.66554E-010	0.00000E+000	2.20000E-001	1.01592E-003	4	..........a	-327.66
	279	56	1.90036E-001	-2.79361E-010	0.00000E+000	1.90000E-001	9.89522E-004	4	..........a	-327.66
	282	56.6	1.60032E-001	-2.89504E-010	0.00000E+000	1.60000E-001	1.00552E-003	4	..........a	-327.66
	285	57.2	1.30072E-001	-2.92657E-010	0.00000E+000	1.30000E-001	9.99822E-004	4	..........a	-327.66
	288	57.8	1.00094E-001	-2.94720E-010	0.00000E+000	1.00000E-001	1.02882E-003	4	..........a	-327.66
	291	58.4	7.00198E-002	-3.03445E-010	0.00000E+000	7.00000E-002	9.95822E-004	4	..........a	-327.66
	294	59	3.98577E-002	-3.16219E-010	0.00000E+000	4.00000E-002	1.00462E-003	4	..........a	-327.66
	297	59.6	1.00764E-002	-3.21901E-010	0.00000E+000	1.00000E-002	9.95722E-004	4	..........a	-327.66
	300	60.2	-1.99198E-002	-3.35164E-010	0.00000E+000	-2.00000E-002	1.02252E-003	4	..........a	-327.66
	303	60.8	-5.00171E-002	-3.48157E-010	0.00000E+000	-5.00000E-002	1.00512E-003	4	..........a	-327.66
	306	61.4	-7.98825E-002	-3.56491E-010	0.00000E+000	-8.00000E-002	1.01652E-003	4	..........a	-327.66
	309	62	-1.10001E-001	-3.86638E-010	0.00000E+000	-1.10000E-001	1.02572E-003	4	..........a	-327.66
	312	62.6	-1.39952E-001	-4.04599E-010	0.00000E+000	-1.40000E-001	9.84622E-004	4	..........a	-327.66
	315	63.2	-1.69936E-001	-4.24058E-010	0.00000E+000	-1.70000E-001	9.84122E-004	4	..........a	-327.66
	318	63.8	-1.99969E-001	-4.48896E-010	0.00000E+000	-2.00000E-001	9.94022E-004	4	..........a	-327.66
	321	64.4	-2.29956E-001	-4.70108E-010	0.00000E+000	-2.30000E-001	9.97222E-004	4	..........a	-327.66
	324	65	-2.59886E-001	-4.91673E-010	0.00000E+000	-2.60000E-001	1.02632E-003	4	..........a	-327.66
	327	65.6	-2.89934E-001	-5.21733E-010	0.00000E+000	-2.90000E-001	9.78522E-004	4	..........a	-327.66
	330	66.2	-3.19882E-001	-5.53152E-010	0.00000E+000	-3.20000E-001	1.02642E-003	4	..........a	-327.66
	333	66.8	-3.49910E-001	-5.86850E-010	0.00000E+000	-3.50000E-001	1.00372E-003	4	..........a	-327.66
	336	67.4	-3.79890E-001	-6.21839E-010	0.00000E+000	-3.80000E-001	9.80922E-004	4	..........a	-327.66
	339	68	-4.09924E-001	-6.62919E-010	0.00000E+000	-4.10000E-001	1.03122E-003	4	..........a	-327.66
	342	68.6	-4.39910E-001	-7.07757E-010	0.00000E+000	-4.40000E-001	1.00742E-003	4	..........a	-327.66
	345	69.2	-4.69799E-001	-7.57623E-010	0.00000E+000	-4.70000E-001	1.00902E-003	4	..........a	-327.66
	348	69.8	-4.99859E-001	-8.14983E-010	0.00000E+000	-5.00000E-001	1.01922E-003	4	..........a	-327.66
	351	70.4	-5.29874E-001	-8.77730E-010	0.00000E+000	-5.30000E-001	9.80722E-004	4	..........a	-327.66
	354	71	-5.59888E-001	-9.64564E-010	0.00000E+000	-5.60000E-001	1.01872E-003	4	..........a	-327.66
	357	71.6	-5.89882E-001	-1.06654E-009	0.00000E+000	-5.90000E-001	9.87822E-004	4	..........a	-327.66
	360	72.2	-5.79901E-001	-7.33465E-010	0.00000E+000	-5.80000E-001	1.01362E-003	4	..........a	-327.66
[...]
	989	198	1.10009E-001	3.26036E-010	0.00000E+000	1.10000E-001	9.90922E-004	4	..........a	-327.66
	992	198.6	1.40089E-001	3.32967E-010	0.00000E+000	1.40000E-001	1.00752E-003	4	..........a	-327.66
	995	199.2	1.70023E-001	3.41687E-010	0.00000E+000	1.70000E-001	9.87422E-004	4	..........a	-327.66
	998	199.8	2.00031E-001	3.52647E-010	0.00000E+000	2.00000E-001	1.01492E-003	4	..........a	-327.66
	1001	200.4	2.29950E-001	3.65122E-010	0.00000E+000	2.30000E-001	1.02372E-003	4	..........a	-327.66
	1004	201	2.59996E-001	3.77718E-010	0.00000E+000	2.60000E-001	1.01892E-003	4	..........a	-327.66
	1007	201.6	2.89999E-001	3.90437E-010	0.00000E+000	2.90000E-001	1.00582E-003	4	..........a	-327.66
	1010	202.2	3.19992E-001	4.02889E-010	0.00000E+000	3.20000E-001	1.00972E-003	4	..........a	-327.66
	1013	202.8	3.49982E-001	4.11543E-010	0.00000E+000	3.50000E-001	9.93722E-004	4	..........a	-327.66
	1016	203.4	3.80006E-001	4.20578E-010	0.00000E+000	3.80000E-001	1.02792E-003	4	..........a	-327.66
	1019	204	4.09946E-001	4.28170E-010	0.00000E+000	4.10000E-001	9.94722E-004	4	..........a	-327.66
	1022	204.6	4.39932E-001	4.36825E-010	0.00000E+000	4.40000E-001	1.00032E-003	4	..........a	-327.66
	1025	205.2	4.69978E-001	4.44735E-010	0.00000E+000	4.70000E-001	9.94922E-004	4	..........a	-327.66
	1028	205.8	5.00026E-001	4.54349E-010	0.00000E+000	5.00000E-001	1.01162E-003	4	..........a	-327.66
	1031	206.4	5.29939E-001	4.65607E-010	0.00000E+000	5.30000E-001	9.94822E-004	4	..........a	-327.66
	1034	207	5.59989E-001	4.77685E-010	0.00000E+000	5.60000E-001	1.01952E-003	4	..........a	-327.66
	1037	207.6	5.89923E-001	4.95043E-010	0.00000E+000	5.90000E-001	1.01522E-003	4	..........a	-327.66
	1040	208.2	6.20003E-001	5.14760E-010	0.00000E+000	6.20000E-001	1.02972E-003	4	..........a	-327.66
	1043	208.8	6.49889E-001	5.38320E-010	0.00000E+000	6.50000E-001	1.01222E-003	4	..........a	-327.66
	1046	209.4	6.79793E-001	5.67005E-010	0.00000E+000	6.80000E-001	1.01112E-003	4	..........a	-327.66
	1049	210	7.09912E-001	6.03337E-010	0.00000E+000	7.10000E-001	1.02002E-003	4	..........a	-327.66
	1052	210.6	7.40000E-001	6.52991E-010	0.00000E+000	7.40000E-001	1.00692E-003	4	..........a	-327.66
	1055	211.2	7.69919E-001	7.14897E-010	0.00000E+000	7.70000E-001	9.89322E-004	4	..........a	-327.66
	1058	211.8	7.99910E-001	7.96564E-010	0.00000E+000	8.00000E-001	1.02272E-003	4	..........a	-327.66
CURVE5	TABLE
	Pt	T	Vf	Im	Vu	Sig	Ach	IERange	Over	Temp
	#	s	V vs. Ref.	A	V	V	V	#	bits	deg C
	1059	212	7.89944E-001	6.18055E-010	0.00000E+000	7.90000E-001	1.00022E-003	4	..........a	-327.66
	1060	212.2	7.79971E-001	5.02585E-010	0.00000E+000	7.80000E-001	1.00372E-003	4	..........a	-327.66
	1061	212.4	7.69902E-001	4.13683E-010	0.00000E+000	7.70000E-001	1.01842E-003	4	..........a	-327.66
	1062	212.6	7.59951E-001	3.47324E-010	0.00000E+000	7.60000E-001	9.95722E-004	4	..........a	-327.66
	1063	212.8	7.49907E-001	2.93077E-010	0.00000E+000	7.50000E-001	1.01252E-003	4	..........a	-327.66
	1064	213	7.39954E-001	2.47203E-010	0.00000E+000	7.40000E-001	1.00182E-003	4	..........a	-327.66
	1065	213.2	7.29908E-001	2.07408E-010	0.00000E+000	7.30000E-001	1.01222E-003	4	..........a	-327.66
	1066	213.4	7.19880E-001	1.73606E-010	0.00000E+000	7.20000E-001	9.86522E-004	4	..........a	-327.66
	1067	213.6	7.09876E-001	1.44786E-010	0.00000E+000	7.10000E-001	9.95422E-004	4	..........a	-327.66
	1068	213.8	6.99988E-001	1.19476E-010	0.00000E+000	7.00000E-001	1.00862E-003	4	..........a	-327.66
	1069	214	6.89916E-001	9.25083E-011	0.00000E+000	6.90000E-001	9.82822E-004	4	..........a	-327.66
	1070	214.2	6.79795E-001	7.40986E-011	0.00000E+000	6.80000E-001	9.99122E-004	4	..........a	-327.66
	1071	214.4	6.69925E-001	5.59559E-011	0.00000E+000	6.70000E-001	1.00612E-003	4	..........a	-327.66
	1072	214.6	6.60023E-001	3.81573E-011	0.00000E+000	6.60000E-001	1.01952E-003	4	..........a	-327.66
	1073	214.8	6.49918E-001	2.27327E-011	0.00000E+000	6.50000E-001	9.99622E-004	4	..........a	-327.66
	1074	215	6.39912E-001	6.31304E-012	0.00000E+000	6.40000E-001	1.01052E-003	4	..........a	-327.66
	1075	215.2	6.29930E-001	-7.19248E-012	0.00000E+000	6.30000E-001	9.82822E-004	4	..........a	-327.66
	1076	215.4	6.20002E-001	-2.12750E-011	0.00000E+000	6.20000E-001	9.86422E-004	4	..........a	-327.66
	1077	215.6	6.09954E-001	-3.52326E-011	0.00000E+000	6.10000E-001	1.00362E-003	4	..........a	-327.66
	1078	215.8	5.99994E-001	-4.40769E-011	0.00000E+000	6.00000E-001	1.01972E-003	4	..........a	-327.66
	1079	216	5.89961E-001	-5.47093E-011	0.00000E+000	5.90000E-001	1.00302E-003	4	..........a	-327.66
	1080	216.2	5.80005E-001	-6.67788E-011	0.00000E+000	5.80000E-001	9.94822E-004	4	..........a	-327.66
	1081	216.4	5.69939E-001	-7.46961E-011	0.00000E+000	5.70000E-001	9.94922E-004	4	..........a	-327.66
	1082	216.6	5.59946E-001	-8.45854E-011	0.00000E+000	5.60000E-001	1.00912E-003	4	..........a	-327.66
	1083	216.8	5.49944E-001	-9.23337E-011	0.00000E+000	5.50000E-001	9.95722E-004	4	..........a	-327.66
	1084	217	5.40021E-001	-1.01877E-010	0.00000E+000	5.40000E-001	9.90922E-004	4	..........a	-327.66
	1085	217.2	5.29900E-001	-1.10058E-010	0.00000E+000	5.30000E-001	9.96722E-004	4	..........a	-327.66
	1086	217.4	5.19959E-001	-1.18067E-010	0.00000E+000	5.20000E-001	1.02112E-003	4	..........a	-327.66
	1087	217.6	5.09894E-001	-1.25753E-010	0.00000E+000	5.10000E-001	9.96122E-004	4	..........a	-327.66
	1088	217.8	5.00033E-001	-1.33631E-010	0.00000E+000	5.00000E-001	1.03212E-003	4	..........a	-327.66
	1089	218	4.89932E-001	-1.40665E-010	0.00000E+000	4.90000E-001	9.81522E-004	4	..........a	-327.66
	1090	218.2	4.79968E-001	-1.48108E-010	0.00000E+000	4.80000E-001	1.02712E-003	4	..........a	-327.66
	1091	218.4	4.69959E-001	-1.54579E-010	0.00000E+000	4.70000E-001	9.91722E-004	4	..........a	-327.66
	1092	218.6	4.60007E-001	-1.62343E-010	0.00000E+000	4.60000E-001	9.96322E-004	4	..........a	-327.66
	1093	218.8	4.49963E-001	-1.68405E-010	0.00000E+000	4.50000E-001	1.00002E-003	4	..........a	-327.66
	1094	219	4.39957E-001	-1.75403E-010	0.00000E+000	4.40000E-001	1.01072E-003	4	..........a	-327.66
	1095	219.2	4.29962E-001	-1.81386E-010	0.00000E+000	4.30000E-001	1.00222E-003	4	..........a	-327.66
	1096	219.4	4.20023E-001	-1.88077E-010	0.00000E+000	4.20000E-001	1.01972E-003	4	..........a	-327.66
	1097	219.6	4.09937E-001	-1.94637E-010	0.00000E+000	4.10000E-001	9.92522E-004	4	..........a	-327.66
	1098	219.8	3.99903E-001	-2.00698E-010	0.00000E+000	4.00000E-001	9.97922E-004	4	..........a	-327.66
	1099	220	3.89958E-001	-2.06974E-010	0.00000E+000	3.90000E-001	1.01382E-003	4	..........a	-327.66
	1100	220.2	3.80003E-001	-2.12174E-010	0.00000E+000	3.80000E-001	9.97522E-004	4	..........a	-327.66
	1101	220.4	3.69994E-001	-2.17820E-010	0.00000E+000	3.70000E-001	1.00602E-003	4	..........a	-327.66
	1102	220.6	3.59995E-001	-2.23619E-010	0.00000E+000	3.60000E-001	1.02102E-003	4	..........a	-327.66
	1103	220.8	3.49988E-001	-2.29320E-010	0.00000E+000	3.50000E-001	1.00602E-003	4	..........a	-327.66
	1104	221	3.40052E-001	-2.33990E-010	0.00000E+000	3.40000E-001	9.86922E-004	4	..........a	-327.66
	1105	221.2	3.29975E-001	-2.39371E-010	0.00000E+000	3.30000E-001	9.92322E-004	4	..........a	-327.66
	1106	221.4	3.20023E-001	-2.44243E-010	0.00000E+000	3.20000E-001	1.02242E-003	4	..........a	-327.66
	1107	221.6	3.09975E-001	-2.49995E-010	0.00000E+000	3.10000E-001	1.01012E-003	4	..........a	-327.66
	1108	221.8	3.00017E-001	-2.55219E-010	0.00000E+000	3.00000E-001	1.02112E-003	4	..........a	-327.66
	1109	222	2.90003E-001	-2.59623E-010	0.00000E+000	2.90000E-001	1.00062E-003	4	..........a	-327.66
	1110	222.2	2.79883E-001	-2.63660E-010	0.00000E+000	2.80000E-001	1.00932E-003	4	..........a	-327.66
	1111	222.4	2.70014E-001	-2.66442E-010	0.00000E+000	2.70000E-001	9.98322E-004	4	..........a	-327.66
	1112	222.6	2.60038E-001	-2.71486E-010	0.00000E+000	2.60000E-001	1.01162E-003	4	..........a	-327.66
	1113	222.8	2.50012E-001	-2.78750E-010	0.00000E+000	2.50000E-001	9.85222E-004	4	..........a	-327.66
	1114	223	2.39985E-001	-2.83367E-010	0.00000E+000	2.40000E-001	1.00372E-003	4	..........a	-327.66
	1115	223.2	2.29987E-001	-2.88017E-010	0.00000E+000	2.30000E-001	1.00202E-003	4	..........a	-327.66
	1116	223.4	2.20035E-001	-2.90220E-010	0.00000E+000	2.20000E-001	9.99322E-004	4	..........a	-327.66
	1117	223.6	2.10010E-001	-2.91972E-010	0.00000E+000	2.10000E-001	9.78522E-004	4	..........a	-327.66
	1118	223.8	2.00067E-001	-2.92611E-010	0.00000E+000	2.00000E-001	1.03182E-003	4	..........a	-327.66
	1119	224	1.90066E-001	-2.93570E-010	0.00000E+000	1.90000E-001	9.90422E-004	4	..........a	-327.66
	1120	224.2	1.80107E-001	-2.93983E-010	0.00000E+000	1.80000E-001	1.00932E-003	4	..........a	-327.66