File: example_project/raw_outputs/20240509_ZZI_GM0016_HL03_E09_CV50.DTA
EXPLAIN
TAG	CV
TITLE	LABEL	Cyclic Voltammetry	Test &Identifier
DATE	LABEL	5/9/2024	Date
TIME	LABEL	14:17:42	Time
NOTES	NOTES	1	&Notes...

PSTAT	PSTAT	REF600P-43058	Potentiostat
VINIT	POTEN	0.00000E+000	T	Initial &E (V)
VLIMIT1	POTEN	8.00000E-001	F	Scan Limit &1 (V)
VLIMIT2	POTEN	-6.00000E-001	F	Scan Limit &2 (V)
VFINAL	POTEN	0.00000E+000	T	Final &E (V)
SCANRATE	QUANT	4.99999E+001	&Scan Rate (mV/s)
STEPSIZE	QUANT	1.00000E+001	St&ep Size (mV)
CYCLES	IQUANT	4	C&ycles (#)
IMODE	SELECTOR	0	I/E Range &Mode
IRANGE	QUANT	1.00000E-005	&Max Current (mA)
AREA	QUANT	1.00000E+000	Electrode &Area (cm^2)
ELECTRODETYPE	SELECTOR	0	Electrode Type
STRIPPING	TOGGLE	F	Used for Stripping
POLARITY	TOGGLE	F	Signal Polarity
CONDIT	TWOPARAM	F	1.50000E+001	0.00000E+000	Conditionin&g	Time(s)	E(V)
DELAY	TWOPARAM	T	1.00000E+001	0.00000E+000	Init. De&lay	Time(s)	Stab.(mV/s)
EQDELAY	QUANT	1.00000E+001	Equil. &Time (s)
IRCOMP	SELECTOR	0	IRCom&p
PFCOR	QUANT	5.00000E+001	PF Corr. (ohm)
SAMPLINGMODE	SELECTOR	1	Sampling &Mode
OCVCURVE	TABLE	39
	Pt	T	Vf	Vm	Ach	Over	Temp
	#	s	V vs. Ref.	V	V	bits	deg C
	0	0.258333	-1.67840E-001	-1.67840E-001	2.31659E-004	..........a	-327.66
	1	0.516667	-1.67842E-001	-1.67921E-001	2.27259E-004	..........a	-327.66
	2	0.775	-1.67850E-001	-1.67926E-001	2.21792E-004	..........a	-327.66
	3	1.03333	-1.67869E-001	-1.67974E-001	2.16526E-004	..........a	-327.66
	4	1.29167	-1.67899E-001	-1.68049E-001	2.23592E-004	..........a	-327.66
	5	1.55	-1.67939E-001	-1.68188E-001	2.30392E-004	..........a	-327.66
	6	1.80833	-1.67996E-001	-1.68332E-001	2.28859E-004	..........a	-327.66
	7	2.06667	-1.68080E-001	-1.68477E-001	2.24126E-004	..........a	-327.66
	8	2.325	-1.68190E-001	-1.68610E-001	2.17392E-004	..........a	-327.66
	9	2.58333	-1.68320E-001	-1.68734E-001	2.30326E-004	..........a	-327.66
	10	2.84167	-1.68457E-001	-1.68869E-001	2.24592E-004	..........a	-327.66
	11	3.1	-1.68593E-001	-1.68991E-001	2.29859E-004	..........a	-327.66
	12	3.35833	-1.68726E-001	-1.69128E-001	2.28192E-004	..........a	-327.66
	13	3.61667	-1.68856E-001	-1.69252E-001	2.21926E-004	..........a	-327.66
	14	3.875	-1.68985E-001	-1.69380E-001	2.28992E-004	..........a	-327.66
	15	4.13333	-1.69114E-001	-1.69496E-001	2.23926E-004	..........a	-327.66
	16	4.39167	-1.69240E-001	-1.69597E-001	2.22992E-004	..........a	-327.66
	17	4.65	-1.69362E-001	-1.69691E-001	2.26192E-004	..........a	-327.66
	18	4.90833	-1.69477E-001	-1.69792E-001	2.34726E-004	..........a	-327.66
	19	5.16667	-1.69585E-001	-1.69928E-001	2.35326E-004	..........a	-327.66
	20	5.425	-1.69687E-001	-1.69873E-001	2.30726E-004	..........a	-327.66
	21	5.68333	-1.69775E-001	-1.69771E-001	2.27459E-004	..........a	-327.66
	22	5.94167	-1.69831E-001	-1.69893E-001	2.22192E-004	..........a	-327.66
	23	6.2	-1.69854E-001	-1.70011E-001	2.29859E-004	..........a	-327.66
	24	6.45833	-1.69874E-001	-1.70134E-001	2.21992E-004	..........a	-327.66
	25	6.71667	-1.69925E-001	-1.70258E-001	2.25659E-004	..........a	-327.66
	26	6.975	-1.70011E-001	-1.70391E-001	2.14059E-004	..........a	-327.66
	27	7.23333	-1.70124E-001	-1.70524E-001	2.12992E-004	..........a	-327.66
	28	7.49167	-1.70249E-001	-1.70656E-001	2.30126E-004	..........a	-327.66
	29	7.75	-1.70380E-001	-1.70791E-001	2.20459E-004	..........a	-327.66
	30	8.00833	-1.70512E-001	-1.70911E-001	2.25326E-004	..........a	-327.66
	31	8.26667	-1.70644E-001	-1.71041E-001	2.17859E-004	..........a	-327.66
	32	8.525	-1.70775E-001	-1.71186E-001	2.18126E-004	..........a	-327.66
	33	8.78333	-1.70906E-001	-1.71352E-001	2.08859E-004	..........a	-327.66
	34	9.04167	-1.71042E-001	-1.71509E-001	2.28926E-004	..........a	-327.66
	35	9.3	-1.71186E-001	-1.71660E-001	2.18259E-004	..........a	-327.66
	36	9.5583	-1.71337E-001	-1.71758E-001	2.23392E-004	..........a	-327.66
	37	9.8167	-1.71482E-001	-1.71727E-001	2.25926E-004	..........a	-327.66
	38	10.075	-1.71605E-001	-1.71807E-001	2.29859E-004	..........a	-327.66
EOC	QUANT	-0.1716053	Open Circuit (V)
PSTATMODEL	IQUANT	7	Pstat Model
PSTATSECTION	LABEL	REF600P-43058	Pstat Section
PSTATSERIALNO	LABEL	43058	Pstat Serial Number
CTRLMODE	IQUANT	1	Control Mode
ELECTROMETER	IQUANT	0	RE=0 or CS=1
IESTAB	IQUANT	2	I/E Stability
CASPEED	IQUANT	4	Control Amp Speed
CONVENTION	IQUANT	1	Current Convention
ICHRANGE	IQUANT	2	Ich Range
ICHRANGEMODE	TOGGLE	F	Ich Auto Range
ICHOFFSETENABLE	TOGGLE	F	Ich Offset Enable
ICHOFFSET	QUANT	0	Ich Offset (V)
ICHFILTER	IQUANT	2	Ich Filter
VCHRANGE	IQUANT	2	Vch Range
VCHRANGEMODE	TOGGLE	F	Vch Auto Range
VCHOFFSETENABLE	TOGGLE	F	Vch Offset Enable
VCHOFFSET	QUANT	0	Vch Offset (V)
VCHFILTER	IQUANT	2	Vch Filter
ACHRANGE	IQUANT	2	Ach Range
ACHOFFSETENABLE	TOGGLE	F	Ach Offset Enable
ACHOFFSET	QUANT	0	Ach Offset (V)
ACHFILTER	IQUANT	1	Ach Filter
IERANGELOWERLIMIT	IQUANT	1	I/E Range Lower Limit
IERANGEMODE	TOGGLE	T	I/E AutoRange
IERANGE	IQUANT	4	I/E Range
POSFEEDENABLE	TOGGLE	F	Positive Feedback IR Comp
POSFEEDRESISTANCE	QUANT	0	Positive Feedback Resistance (ohm)
ACHSELECT	IQUANT	4	Ach Select
SENSECABLEID	IQUANT	7	Sense Cable ID
PWRCABLEID	IQUANT	7	Power Cable ID
DCCALDATE	LABEL	3/22/2024	DC Calibration Date
ACCALDATE	LABEL	3/22/2024	AC Calibration Date
THERMOSELECT	IQUANT	1	Thermo Select
FRAMEWORKVERSION	LABEL	7.8.4	Framework Version
INSTRUMENTVERSION	LABEL	4.42	Instrument Version
CURVE1	TABLE
	Pt	T	Vf	Im	Vu	Sig	Ach	IERange	Over	Temp
	#	s	V vs. Ref.	A	V	V	V	#	bits	deg C
	0	0.2	-1.71524E-001	1.26032E-009	0.00000E+000	-1.71600E-001	9.82692E-004	5	..........a	-327.66
	3	0.8	-1.41519E-001	1.13447E-008	0.00000E+000	-1.41600E-001	9.60492E-004	5	..........a	-327.66
	6	1.4	-1.11538E-001	1.66806E-008	0.00000E+000	-1.11600E-001	9.96892E-004	5	..........a	-327.66
	9	2	-8.15520E-002	2.13937E-008	0.00000E+000	-8.16000E-002	9.96792E-004	5	..........a	-327.66
	12	2.6	-5.15248E-002	2.59917E-008	0.00000E+000	-5.16000E-002	9.87692E-004	5	..........a	-327.66
	15	3.2	-2.15071E-002	3.08349E-008	0.00000E+000	-2.16000E-002	9.67692E-004	5	..........a	-327.66
	18	3.8	8.49484E-003	3.62015E-008	0.00000E+000	8.40000E-003	9.93292E-004	5	..........a	-327.66
	21	4.4	3.84933E-002	4.23846E-008	0.00000E+000	3.84000E-002	9.85492E-004	5	..........a	-327.66
	24	5	6.84062E-002	5.01266E-008	0.00000E+000	6.84000E-002	9.82792E-004	5	..........a	-327.66
	27	5.6	9.85043E-002	5.97614E-008	0.00000E+000	9.84000E-002	9.76892E-004	5	..........a	-327.66
	30	6.2	1.28413E-001	7.16922E-008	0.00000E+000	1.28400E-001	9.95392E-004	5	..........a	-327.66
	33	6.8	1.58401E-001	8.63023E-008	0.00000E+000	1.58400E-001	9.89092E-004	5	..........a	-327.66
	36	7.4	1.88469E-001	1.03203E-007	0.00000E+000	1.88400E-001	9.85592E-004	5	..........a	-327.66
	39	8	2.18489E-001	1.21099E-007	0.00000E+000	2.18400E-001	9.80392E-004	5	..........a	-327.66
	42	8.6	2.48351E-001	1.39382E-007	0.00000E+000	2.48400E-001	9.93492E-004	5	..........a	-327.66
	45	9.2	2.78330E-001	1.56032E-007	0.00000E+000	2.78400E-001	1.00079E-003	5	..........a	-327.66
	48	9.8	3.08398E-001	1.71239E-007	0.00000E+000	3.08400E-001	9.75592E-004	5	..........a	-327.66
	51	10.4	3.38364E-001	1.86453E-007	0.00000E+000	3.38400E-001	9.70492E-004	5	..........a	-327.66
	54	11	3.68352E-001	2.01228E-007	0.00000E+000	3.68400E-001	9.77292E-004	5	..........a	-327.66
	57	11.6	3.98333E-001	2.16545E-007	0.00000E+000	3.98400E-001	9.72292E-004	5	..........a	-327.66
	60	12.2	4.28346E-001	2.32229E-007	0.00000E+000	4.28400E-001	9.88592E-004	5	..........a	-327.66
	63	12.8	4.58292E-001	2.49205E-007	0.00000E+000	4.58400E-001	9.80392E-004	5	..........a	-327.66
	66	13.4	4.88262E-001	2.66388E-007	0.00000E+000	4.88400E-001	9.77592E-004	5	..........a	-327.66
	69	14	5.18258E-001	2.79333E-007	0.00000E+000	5.18400E-001	9.88892E-004	5	..........a	-327.66
	72	14.6	5.48314E-001	2.93820E-007	0.00000E+000	5.48400E-001	9.84492E-004	5	..........a	-327.66
	75	15.2	5.78166E-001	3.10189E-007	0.00000E+000	5.78400E-001	9.73592E-004	5	..........a	-327.66
	78	15.8	6.08195E-001	3.28184E-007	0.00000E+000	6.08400E-001	9.78692E-004	5	..........a	-327.66
	81	16.4	6.38181E-001	3.46134E-007	0.00000E+000	6.38400E-001	9.87092E-004	5	..........a	-327.66
	84	17	6.68268E-001	3.65917E-007	0.00000E+000	6.68400E-001	9.93492E-004	5	..........a	-327.66
	87	17.6	6.98174E-001	3.87604E-007	0.00000E+000	6.98400E-001	9.79392E-004	5	..........a	-327.66
	90	18.2	7.28161E-001	4.11336E-007	0.00000E+000	7.28400E-001	9.74792E-004	5	..........a	-327.66
	93	18.8	7.58170E-001	4.38367E-007	0.00000E+000	7.58400E-001	9.88592E-004	5	..........a	-327.66
	96	19.4	7.88240E-001	4.69905E-007	0.00000E+000	7.88400E-001	9.79592E-004	5	..........a	-327.66
	99	20	7.78194E-001	3.52965E-007	0.00000E+000	7.78400E-001	9.84392E-004	5	..........a	-327.66
	102	20.6	7.48322E-001	2.49971E-007	0.00000E+000	7.48400E-001	9.75292E-004	5	..........a	-327.66
	105	21.2	7.18251E-001	1.87680E-007	0.00000E+000	7.18400E-001	9.84592E-004	5	..........a	-327.66
	108	21.8	6.88266E-001	1.45104E-007	0.00000E+000	6.88400E-001	9.81392E-004	5	..........a	-327.66
	111	22.4	6.58334E-001	1.13988E-007	0.00000E+000	6.58400E-001	9.73292E-004	5	..........a	-327.66
	114	23	6.28334E-001	9.04804E-008	0.00000E+000	6.28400E-001	9.95292E-004	5	..........a	-327.66
	117	23.6	5.98367E-001	7.19880E-008	0.00000E+000	5.98400E-001	9.84492E-004	5	..........a	-327.66
	120	24.2	5.68353E-001	5.69999E-008	0.00000E+000	5.68400E-001	9.85592E-004	5	..........a	-327.66
	123	24.8	5.38370E-001	4.44709E-008	0.00000E+000	5.38400E-001	1.00019E-003	5	..........a	-327.66
	126	25.4	5.08381E-001	3.39052E-008	0.00000E+000	5.08400E-001	9.86992E-004	5	..........a	-327.66
	129	26	4.78330E-001	2.47216E-008	0.00000E+000	4.78400E-001	9.91292E-004	5	..........a	-327.66
	132	26.6	4.48441E-001	1.62563E-008	0.00000E+000	4.48400E-001	9.83992E-004	5	..........a	-327.66
	135	27.2	4.18431E-001	8.38435E-009	0.00000E+000	4.18400E-001	9.81892E-004	5	..........a	-327.66
	138	27.8	3.88420E-001	5.93469E-010	0.00000E+000	3.88400E-001	9.99092E-004	5	..........a	-327.66
	141	28.4	3.58417E-001	-6.10430E-009	0.00000E+000	3.58400E-001	9.90592E-004	5	..........a	-327.66
	144	29	3.28453E-001	-1.23655E-008	0.00000E+000	3.28400E-001	1.00109E-003	5	..........a	-327.66
	147	29.6	2.98524E-001	-1.88340E-008	0.00000E+000	2.98400E-001	9.79392E-004	5	..........a	-327.66
	150	30.2	2.68493E-001	-2.49720E-008	0.00000E+000	2.68400E-001	9.78292E-004	5	..........a	-327.66
	153	30.8	2.38464E-001	-3.13200E-008	0.00000E+000	2.38400E-001	9.95292E-004	5	..........a	-327.66
	156	31.4	2.08429E-001	-3.69239E-008	0.00000E+000	2.08400E-001	9.99092E-004	5	..........a	-327.66
	159	32	1.78562E-001	-4.18086E-008	0.00000E+000	1.78400E-001	9.77192E-004	5	..........a	-327.66
	162	32.6	1.48518E-001	-4.54911E-008	0.00000E+000	1.48400E-001	9.82092E-004	5	..........a	-327.66
	165	33.2	1.18533E-001	-4.80418E-008	0.00000E+000	1.18400E-001	9.85892E-004	5	..........a	-327.66
	168	33.8	8.85212E-002	-4.98937E-008	0.00000E+000	8.84000E-002	9.85692E-004	5	..........a	-327.66
	171	34.4	5.85591E-002	-5.12947E-008	0.00000E+000	5.84000E-002	9.87492E-004	5	..........a	-327.66
	174	35	2.84871E-002	-5.27927E-008	0.00000E+000	2.84000E-002	9.97792E-004	5	..........a	-327.66
	177	35.6	-1.50856E-003	-5.49393E-008	0.00000E+000	-1.60000E-003	9.99692E-004	5	..........a	-327.66
	180	36.2	-3.14996E-002	-5.70410E-008	0.00000E+000	-3.16000E-002	9.77392E-004	5	..........a	-327.66
	183	36.8	-6.14433E-002	-5.91276E-008	0.00000E+000	-6.16000E-002	9.65392E-004	5	..........a	-327.66
	186	37.4	-9.14624E-002	-6.21622E-008	0.00000E+000	-9.16000E-002	9.65092E-004	5	..........a	-327.66
	189	38	-1.21491E-001	-6.62530E-008	0.00000E+000	-1.21600E-001	9.92792E-004	5	..........a	-327.66
	192	38.6	-1.51509E-001	-7.11190E-008	0.00000E+000	-1.51600E-001	9.73892E-004	5	..........a	-327.66
	195	39.2	-1.81425E-001	-7.69661E-008	0.00000E+000	-1.81600E-001	9.87692E-004	5	..........a	-327.66
	198	39.8	-2.11473E-001	-8.39581E-008	0.00000E+000	-2.11600E-001	9.96092E-004	5	..........a	-327.66
	201	40.4	-2.41360E-001	-9.07382E-008	0.00000E+000	-2.41600E-001	9.78392E-004	5	..........a	-327.66
	204	41	-2.71433E-001	-9.79904E-008	0.00000E+000	-2.71600E-001	9.81192E-004	5	..........a	-327.66
	207	41.6	-3.01403E-001	-1.05904E-007	0.00000E+000	-3.01600E-001	9.92992E-004	5	..........a	-327.66
	210	42.2	-3.31437E-001	-1.13051E-007	0.00000E+000	-3.31600E-001	9.75692E-004	5	..........a	-327.66
	213	42.8	-3.61461E-001	-1.19995E-007	0.00000E+000	-3.61600E-001	9.93492E-004	5	..........a	-327.66
	216	43.4	-3.91448E-001	-1.26793E-007	0.00000E+000	-3.91600E-001	9.95092E-004	5	..........a	-327.66
	219	44	-4.21308E-001	-1.33655E-007	0.00000E+000	-4.21600E-001	9.84692E-004	5	..........a	-327.66
	222	44.6	-4.51409E-001	-1.40705E-007	0.00000E+000	-4.51600E-001	9.97992E-004	5	..........a	-327.66
	225	45.2	-4.81408E-001	-1.47754E-007	0.00000E+000	-4.81600E-001	9.79592E-004	5	..........a	-327.66
	228	45.8	-5.11417E-001	-1.55281E-007	0.00000E+000	-5.11600E-001	9.85892E-004	5	..........a	-327.66
	231	46.4	-5.41299E-001	-1.62197E-007	0.00000E+000	-5.41600E-001	9.85592E-004	5	..........a	-327.66
	234	47	-5.71390E-001	-1.69705E-007	0.00000E+000	-5.71600E-001	9.82992E-004	5	..........a	-327.66
	237	47.6	-6.01384E-001	-1.77113E-007	0.00000E+000	-6.01600E-001	9.92092E-004	5	..........a	-327.66
CURVE2	TABLE
	Pt	T	Vf	Im	Vu	Sig	Ach	IERange	Over	Temp
	#	s	V vs. Ref.	A	V	V	V	#	bits	deg C
	238	47.8	-5.89797E-001	-1.48650E-007	0.00000E+000	-5.90000E-001	9.81192E-004	5	..........a	-327.66
	241	48.4	-5.59843E-001	-1.11189E-007	0.00000E+000	-5.60000E-001	9.84892E-004	5	..........a	-327.66
	244	49	-5.29823E-001	-8.80364E-008	0.00000E+000	-5.30000E-001	9.81692E-004	5	..........a	-327.66
	247	49.6	-4.99808E-001	-7.05128E-008	0.00000E+000	-5.00000E-001	9.75192E-004	5	..........a	-327.66
	250	50.2	-4.69834E-001	-5.59618E-008	0.00000E+000	-4.70000E-001	9.93092E-004	5	..........a	-327.66
	253	50.8	-4.39849E-001	-4.35685E-008	0.00000E+000	-4.40000E-001	9.80792E-004	5	..........a	-327.66
	256	51.4	-4.09887E-001	-3.26071E-008	0.00000E+000	-4.10000E-001	9.92392E-004	5	..........a	-327.66
	259	52	-3.79833E-001	-2.27973E-008	0.00000E+000	-3.80000E-001	9.88792E-004	5	..........a	-327.66
	262	52.6	-3.49857E-001	-1.39559E-008	0.00000E+000	-3.50000E-001	9.82992E-004	5	..........a	-327.66
	265	53.2	-3.19862E-001	-5.79126E-009	0.00000E+000	-3.20000E-001	9.89692E-004	5	..........a	-327.66
	268	53.8	-2.89909E-001	1.77604E-009	0.00000E+000	-2.90000E-001	9.91992E-004	5	..........a	-327.66
	271	54.4	-2.59821E-001	8.74237E-009	0.00000E+000	-2.60000E-001	1.01699E-003	5	..........a	-327.66
	274	55	-2.29929E-001	1.53270E-008	0.00000E+000	-2.30000E-001	9.78792E-004	5	..........a	-327.66
	277	55.6	-1.99961E-001	2.15105E-008	0.00000E+000	-2.00000E-001	9.98892E-004	5	..........a	-327.66
	280	56.2	-1.69892E-001	2.73139E-008	0.00000E+000	-1.70000E-001	9.94592E-004	5	..........a	-327.66
	283	56.8	-1.39880E-001	3.26684E-008	0.00000E+000	-1.40000E-001	9.78292E-004	5	..........a	-327.66
	286	57.4	-1.09996E-001	3.82456E-008	0.00000E+000	-1.10000E-001	9.90292E-004	5	..........a	-327.66
	289	58	-8.00101E-002	4.37031E-008	0.00000E+000	-8.00000E-002	1.00429E-003	5	..........a	-327.66
	292	58.6	-4.99484E-002	4.90979E-008	0.00000E+000	-5.00000E-002	9.99892E-004	5	..........a	-327.66
	295	59.2	-1.99469E-002	5.47284E-008	0.00000E+000	-2.00000E-002	9.81392E-004	5	..........a	-327.66
	298	59.8	1.00809E-002	6.06899E-008	0.00000E+000	1.00000E-002	9.78492E-004	5	..........a	-327.66
	301	60.4	4.00095E-002	6.70113E-008	0.00000E+000	4.00000E-002	9.75992E-004	5	..........a	-327.66
	304	61	6.99960E-002	7.37359E-008	0.00000E+000	7.00000E-002	9.98492E-004	5	..........a	-327.66
	307	61.6	1.00077E-001	8.13254E-008	0.00000E+000	1.00000E-001	9.81692E-004	5	..........a	-327.66
	310	62.2	1.29996E-001	8.99868E-008	0.00000E+000	1.30000E-001	1.00259E-003	5	..........a	-327.66
	313	62.8	1.60014E-001	9.85540E-008	0.00000E+000	1.60000E-001	1.02079E-003	5	..........a	-327.66
	316	63.4	1.90066E-001	1.07419E-007	0.00000E+000	1.90000E-001	9.87792E-004	5	..........a	-327.66
	319	64	2.19938E-001	1.15729E-007	0.00000E+000	2.20000E-001	9.85492E-004	5	..........a	-327.66
	322	64.6	2.49961E-001	1.22174E-007	0.00000E+000	2.50000E-001	1.00009E-003	5	..........a	-327.66
	325	65.2	2.79935E-001	1.29141E-007	0.00000E+000	2.80000E-001	9.85692E-004	5	..........a	-327.66
	328	65.8	3.09984E-001	1.36825E-007	0.00000E+000	3.10000E-001	1.00399E-003	5	..........a	-327.66
	331	66.4	3.39996E-001	1.45211E-007	0.00000E+000	3.40000E-001	9.95692E-004	5	..........a	-327.66
	334	67	3.69983E-001	1.54843E-007	0.00000E+000	3.70000E-001	9.95792E-004	5	..........a	-327.66
	337	67.6	3.99946E-001	1.64638E-007	0.00000E+000	4.00000E-001	1.00329E-003	5	..........a	-327.66
	340	68.2	4.29961E-001	1.74827E-007	0.00000E+000	4.30000E-001	1.00559E-003	5	..........a	-327.66
	343	68.8	4.59922E-001	1.85044E-007	0.00000E+000	4.60000E-001	9.83792E-004	5	..........a	-327.66
	346	69.4	4.89896E-001	1.95488E-007	0.00000E+000	4.90000E-001	9.85292E-004	5	..........a	-327.66
	349	70	5.19904E-001	2.06356E-007	0.00000E+000	5.20000E-001	9.90192E-004	5	..........a	-327.66
	352	70.6	5.49948E-001	2.18313E-007	0.00000E+000	5.50000E-001	1.00119E-003	5	..........a	-327.66
	355	71.2	5.79897E-001	2.32507E-007	0.00000E+000	5.80000E-001	9.96592E-004	5	..........a	-327.66
	358	71.8	6.09865E-001	2.48226E-007	0.00000E+000	6.10000E-001	9.79292E-004	5	..........a	-327.66
	361	72.4	6.39826E-001	2.66546E-007	0.00000E+000	6.40000E-001	1.00529E-003	5	..........a	-327.66
[...]
	954	191	6.30030E-001	7.31596E-008	0.00000E+000	6.30000E-001	9.90892E-004	5	..........a	-327.66
	957	191.6	5.99979E-001	5.85469E-008	0.00000E+000	6.00000E-001	9.87492E-004	5	..........a	-327.66
	960	192.2	5.69968E-001	4.55030E-008	0.00000E+000	5.70000E-001	1.00479E-003	5	..........a	-327.66
	963	192.8	5.40018E-001	3.30444E-008	0.00000E+000	5.40000E-001	9.86992E-004	5	..........a	-327.66
	966	193.4	5.10000E-001	1.99230E-008	0.00000E+000	5.10000E-001	1.01049E-003	5	..........a	-327.66
	969	194	4.79930E-001	3.39267E-009	0.00000E+000	4.80000E-001	9.94392E-004	5	..........a	-327.66
	972	194.6	4.50001E-001	-1.19082E-008	0.00000E+000	4.50000E-001	9.85992E-004	5	..........a	-327.66
	975	195.2	4.20054E-001	-1.91866E-008	0.00000E+000	4.20000E-001	9.93792E-004	5	..........a	-327.66
	978	195.8	3.90079E-001	-2.08390E-008	0.00000E+000	3.90000E-001	9.79592E-004	5	..........a	-327.66
	981	196.4	3.60041E-001	-1.90321E-008	0.00000E+000	3.60000E-001	9.75392E-004	5	..........a	-327.66
	984	197	3.30051E-001	-1.95940E-008	0.00000E+000	3.30000E-001	9.86092E-004	5	..........a	-327.66
	987	197.6	3.00076E-001	-2.14495E-008	0.00000E+000	3.00000E-001	9.82092E-004	5	..........a	-327.66
	990	198.2	2.70109E-001	-2.42007E-008	0.00000E+000	2.70000E-001	1.00209E-003	5	..........a	-327.66
	993	198.8	2.40072E-001	-2.74455E-008	0.00000E+000	2.40000E-001	9.81592E-004	5	..........a	-327.66
	996	199.4	2.10056E-001	-3.09085E-008	0.00000E+000	2.10000E-001	9.85192E-004	5	..........a	-327.66
	999	200	1.80142E-001	-3.52854E-008	0.00000E+000	1.80000E-001	9.83992E-004	5	..........a	-327.66
	1002	200.6	1.50089E-001	-3.87938E-008	0.00000E+000	1.50000E-001	9.88892E-004	5	..........a	-327.66
	1005	201.2	1.20105E-001	-4.29057E-008	0.00000E+000	1.20000E-001	9.88592E-004	5	..........a	-327.66
	1008	201.8	9.01273E-002	-4.62931E-008	0.00000E+000	9.00000E-002	9.77892E-004	5	..........a	-327.66
	1011	202.4	6.01467E-002	-4.84826E-008	0.00000E+000	6.00000E-002	9.78492E-004	5	..........a	-327.66
	1014	203	3.01074E-002	-4.99362E-008	0.00000E+000	3.00000E-002	9.79192E-004	5	..........a	-327.66
	1017	203.6	8.39417E-005	-5.13221E-008	0.00000E+000	7.45058E-009	9.88192E-004	5	..........a	-327.66
	1020	204.2	-2.99152E-002	-5.28870E-008	0.00000E+000	-3.00000E-002	9.81192E-004	5	..........a	-327.66
	1023	204.8	-5.98373E-002	-5.49387E-008	0.00000E+000	-6.00000E-002	9.60792E-004	5	..........a	-327.66
	1026	205.4	-8.98714E-002	-5.77388E-008	0.00000E+000	-9.00000E-002	9.77292E-004	5	..........a	-327.66
	1029	206	-1.19879E-001	-6.11147E-008	0.00000E+000	-1.20000E-001	9.80692E-004	5	..........a	-327.66
	1032	206.6	-1.49904E-001	-6.53217E-008	0.00000E+000	-1.50000E-001	9.90092E-004	5	..........a	-327.66
	1035	207.2	-1.79847E-001	-7.03918E-008	0.00000E+000	-1.80000E-001	9.72292E-004	5	..........a	-327.66
	1038	207.8	-2.09848E-001	-7.62922E-008	0.00000E+000	-2.10000E-001	9.86692E-004	5	..........a	-327.66
	1041	208.4	-2.39847E-001	-8.24944E-008	0.00000E+000	-2.40000E-001	9.76392E-004	5	..........a	-327.66
	1044	209	-2.69836E-001	-8.90229E-008	0.00000E+000	-2.70000E-001	9.76092E-004	5	..........a	-327.66
	1047	209.6	-2.99809E-001	-9.56290E-008	0.00000E+000	-3.00000E-001	9.80792E-004	5	..........a	-327.66
	1050	210.2	-3.29850E-001	-1.02379E-007	0.00000E+000	-3.30000E-001	9.89392E-004	5	..........a	-327.66
	1053	210.8	-3.59857E-001	-1.08846E-007	0.00000E+000	-3.60000E-001	9.86192E-004	5	..........a	-327.66
	1056	211.4	-3.89850E-001	-1.15004E-007	0.00000E+000	-3.90000E-001	9.86992E-004	5	..........a	-327.66
	1059	212	-4.19729E-001	-1.21360E-007	0.00000E+000	-4.20000E-001	9.77292E-004	5	..........a	-327.66
	1062	212.6	-4.49816E-001	-1.27942E-007	0.00000E+000	-4.50000E-001	9.65492E-004	5	..........a	-327.66
	1065	213.2	-4.79812E-001	-1.34561E-007	0.00000E+000	-4.80000E-001	9.79092E-004	5	..........a	-327.66
	1068	213.8	-5.09800E-001	-1.41149E-007	0.00000E+000	-5.10000E-001	9.77992E-004	5	..........a	-327.66
	1071	214.4	-5.39715E-001	-1.47893E-007	0.00000E+000	-5.40000E-001	9.80892E-004	5	..........a	-327.66
	1074	215	-5.69813E-001	-1.55063E-007	0.00000E+000	-5.70000E-001	9.88492E-004	5	..........a	-327.66
	1077	215.6	-5.99813E-001	-1.62916E-007	0.00000E+000	-6.00000E-001	9.78092E-004	5	..........a	-327.66
CURVE5	TABLE
	Pt	T	Vf	Im	Vu	Sig	Ach	IERange	Over	Temp
	#	s	V vs. Ref.	A	V	V	V	#	bits	deg C
	1078	215.8	-5.89817E-001	-1.38284E-007	0.00000E+000	-5.90000E-001	9.80992E-004	5	..........a	-327.66
	1079	216	-5.79780E-001	-1.23448E-007	0.00000E+000	-5.80000E-001	9.75092E-004	5	..........a	-327.66
	1080	216.2	-5.69824E-001	-1.11966E-007	0.00000E+000	-5.70000E-001	9.86092E-004	5	..........a	-327.66
	1081	216.4	-5.59829E-001	-1.02579E-007	0.00000E+000	-5.60000E-001	9.82192E-004	5	..........a	-327.66
	1082	216.6	-5.49832E-001	-9.43924E-008	0.00000E+000	-5.50000E-001	9.65292E-004	5	..........a	-327.66
	1083	216.8	-5.39755E-001	-8.71990E-008	0.00000E+000	-5.40000E-001	9.67692E-004	5	..........a	-327.66
	1084	217	-5.29823E-001	-8.06767E-008	0.00000E+000	-5.30000E-001	9.78692E-004	5	..........a	-327.66
	1085	217.2	-5.19840E-001	-7.48062E-008	0.00000E+000	-5.20000E-001	9.71292E-004	5	..........a	-327.66
	1086	217.4	-5.09837E-001	-6.93647E-008	0.00000E+000	-5.10000E-001	9.86992E-004	5	..........a	-327.66
	1087	217.6	-4.99808E-001	-6.43357E-008	0.00000E+000	-5.00000E-001	9.80992E-004	5	..........a	-327.66
	1088	217.8	-4.89823E-001	-5.95617E-008	0.00000E+000	-4.90000E-001	9.80392E-004	5	..........a	-327.66
	1089	218	-4.79823E-001	-5.51812E-008	0.00000E+000	-4.80000E-001	9.83992E-004	5	..........a	-327.66
	1090	218.2	-4.69831E-001	-5.09393E-008	0.00000E+000	-4.70000E-001	9.72392E-004	5	..........a	-327.66
	1091	218.4	-4.59796E-001	-4.69437E-008	0.00000E+000	-4.60000E-001	9.84192E-004	5	..........a	-327.66
	1092	218.6	-4.49835E-001	-4.31213E-008	0.00000E+000	-4.50000E-001	9.78692E-004	5	..........a	-327.66
	1093	218.8	-4.39842E-001	-3.94278E-008	0.00000E+000	-4.40000E-001	9.73492E-004	5	..........a	-327.66
	1094	219	-4.29847E-001	-3.59606E-008	0.00000E+000	-4.30000E-001	9.60092E-004	5	..........a	-327.66
	1095	219.2	-4.19769E-001	-3.25765E-008	0.00000E+000	-4.20000E-001	9.78492E-004	5	..........a	-327.66
	1096	219.4	-4.09847E-001	-2.93825E-008	0.00000E+000	-4.10000E-001	9.86392E-004	5	..........a	-327.66
	1097	219.6	-3.99856E-001	-2.62548E-008	0.00000E+000	-4.00000E-001	9.80692E-004	5	..........a	-327.66
	1098	219.8	-3.89916E-001	-2.32957E-008	0.00000E+000	-3.90000E-001	9.82592E-004	5	..........a	-327.66
	1099	220	-3.79829E-001	-2.03669E-008	0.00000E+000	-3.80000E-001	9.64392E-004	5	..........a	-327.66
	1100	220.2	-3.69877E-001	-1.75260E-008	0.00000E+000	-3.70000E-001	9.92892E-004	5	..........a	-327.66
	1101	220.4	-3.59870E-001	-1.48221E-008	0.00000E+000	-3.60000E-001	9.80592E-004	5	..........a	-327.66
	1102	220.6	-3.49881E-001	-1.21325E-008	0.00000E+000	-3.50000E-001	9.84092E-004	5	..........a	-327.66
	1103	220.8	-3.39825E-001	-9.56208E-009	0.00000E+000	-3.40000E-001	9.81692E-004	5	..........a	-327.66
	1104	221	-3.29903E-001	-7.07326E-009	0.00000E+000	-3.30000E-001	9.88692E-004	5	..........a	-327.66
	1105	221.2	-3.19854E-001	-4.64387E-009	0.00000E+000	-3.20000E-001	9.84992E-004	5	..........a	-327.66
	1106	221.4	-3.09922E-001	-2.32110E-009	0.00000E+000	-3.10000E-001	9.83992E-004	5	..........a	-327.66
	1107	221.6	-2.99854E-001	-5.26555E-011	0.00000E+000	-3.00000E-001	9.78292E-004	5	..........a	-327.66
	1108	221.8	-2.89928E-001	2.26672E-009	0.00000E+000	-2.90000E-001	1.00049E-003	5	..........a	-327.66
	1109	222	-2.79919E-001	4.47812E-009	0.00000E+000	-2.80000E-001	9.94592E-004	5	..........a	-327.66
	1110	222.2	-2.69867E-001	6.55844E-009	0.00000E+000	-2.70000E-001	9.78892E-004	5	..........a	-327.66
	1111	222.4	-2.59829E-001	8.61872E-009	0.00000E+000	-2.60000E-001	9.77192E-004	5	..........a	-327.66
	1112	222.6	-2.49887E-001	1.06540E-008	0.00000E+000	-2.50000E-001	9.82992E-004	5	..........a	-327.66
	1113	222.8	-2.39956E-001	1.26158E-008	0.00000E+000	-2.40000E-001	9.96392E-004	5	..........a	-327.66
	1114	223	-2.29930E-001	1.45596E-008	0.00000E+000	-2.30000E-001	9.88792E-004	5	..........a	-327.66
	1115	223.2	-2.19872E-001	1.64160E-008	0.00000E+000	-2.20000E-001	9.81692E-004	5	..........a	-327.66
	1116	223.4	-2.09931E-001	1.82676E-008	0.00000E+000	-2.10000E-001	9.92792E-004	5	..........a	-327.66
	1117	223.6	-1.99958E-001	2.00788E-008	0.00000E+000	-2.00000E-001	9.86992E-004	5	..........a	-327.66
	1118	223.8	-1.90197E-001	2.18572E-008	0.00000E+000	-1.90000E-001	9.74192E-004	5	..........a	-327.66
	1119	224	-1.79934E-001	2.35914E-008	0.00000E+000	-1.80000E-001	9.66092E-004	5	..........a	-327.66
	1120	224.2	-1.69892E-001	2.53346E-008	0.00000E+000	-1.70000E-001	9.76092E-004	5	..........a	-327.66