File: example_project/raw_outputs/20240321_P_GM0016_HL03_E04_CV50k.DTA
EXPLAIN
TAG	CV
TITLE	LABEL	Cyclic Voltammetry	Test &Identifier
DATE	LABEL	3/21/2024	Date
TIME	LABEL	17:16:28	Time
NOTES	NOTES	1	&Notes...

PSTAT	PSTAT	REF600P-43058	Potentiostat
VINIT	POTEN	0.00000E+000	T	Initial &E (V)
VLIMIT1	POTEN	-6.00000E-001	F	Scan Limit &1 (V)
VLIMIT2	POTEN	8.00000E-001	F	Scan Limit &2 (V)
VFINAL	POTEN	0.00000E+000	T	Final &E (V)
SCANRATE	QUANT	4.99999E+004	&Scan Rate (mV/s)
STEPSIZE	QUANT	1.00000E+001	St&ep Size (mV)
CYCLES	IQUANT	10	C&ycles (#)
IMODE	SELECTOR	1	I/E Range &Mode
IRANGE	QUANT	1.00000E-005	&Max Current (mA)
AREA	QUANT	1.00000E+000	Electrode &Area (cm^2)
ELECTRODETYPE	SELECTOR	0	Electrode Type
STRIPPING	TOGGLE	F	Used for Stripping
POLARITY	TOGGLE	F	Signal Polarity
CONDIT	TWOPARAM	F	1.50000E+001	0.00000E+000	Conditionin&g	Time(s)	E(V)
DELAY	TWOPARAM	T	1.00000E+001	0.00000E+000	Init. De&lay	Time(s)	Stab.(mV/s)
EQDELAY	QUANT	1.00000E+001	Equil. &Time (s)
IRCOMP	SELECTOR	0	IRCom&p
PFCOR	QUANT	5.00000E+001	PF Corr. (ohm)
SAMPLINGMODE	SELECTOR	1	Sampling &Mode
OCVCURVE	TABLE	39
	Pt	T	Vf	Vm	Ach	Over	Temp
	#	s	V vs. Ref.	V	V	bits	deg C
	0	0.258333	5.40427E-001	5.40427E-001	2.51622E-004	..........a	-327.66
	1	0.516667	5.40429E-001	5.40568E-001	2.52156E-004	..........a	-327.66
	2	0.775	5.40446E-001	5.40701E-001	2.57356E-004	..........a	-327.66
	3	1.03333	5.40493E-001	5.40856E-001	2.52489E-004	..........a	-327.66
	4	1.29167	5.40580E-001	5.40993E-001	2.48622E-004	..........a	-327.66
	5	1.55	5.40698E-001	5.41093E-001	2.46022E-004	..........a	-327.66
	6	1.80833	5.40831E-001	5.41249E-001	2.47089E-004	..........a	-327.66
	7	2.06667	5.40968E-001	5.41474E-001	2.41756E-004	..........a	-327.66
	8	2.325	5.41111E-001	5.41611E-001	2.54022E-004	..........a	-327.66
	9	2.58333	5.41264E-001	5.41645E-001	2.56956E-004	..........a	-327.66
	10	2.84167	5.41415E-001	5.41740E-001	2.50022E-004	..........a	-327.66
	11	3.1	5.41545E-001	5.41853E-001	2.36822E-004	..........a	-327.66
	12	3.35833	5.41653E-001	5.41986E-001	2.44222E-004	..........a	-327.66
	13	3.61667	5.41754E-001	5.42119E-001	2.49289E-004	..........a	-327.66
	14	3.875	5.41861E-001	5.42251E-001	2.38822E-004	..........a	-327.66
	15	4.13333	5.41980E-001	5.42376E-001	2.56222E-004	..........a	-327.66
	16	4.39167	5.42107E-001	5.42521E-001	2.49889E-004	..........a	-327.66
	17	4.65	5.42238E-001	5.42638E-001	2.49756E-004	..........a	-327.66
	18	4.90833	5.42370E-001	5.42755E-001	2.42756E-004	..........a	-327.66
	19	5.16667	5.42500E-001	5.42918E-001	2.39956E-004	..........a	-327.66
	20	5.425	5.42631E-001	5.43090E-001	2.31556E-004	..........a	-327.66
	21	5.68333	5.42767E-001	5.43207E-001	2.61889E-004	..........a	-327.66
	22	5.94167	5.42910E-001	5.43312E-001	2.52756E-004	..........a	-327.66
	23	6.2	5.43051E-001	5.43411E-001	2.44356E-004	..........a	-327.66
	24	6.45833	5.43181E-001	5.43506E-001	2.42422E-004	..........a	-327.66
	25	6.71667	5.43297E-001	5.43635E-001	2.49422E-004	..........a	-327.66
	26	6.975	5.43406E-001	5.43761E-001	2.47156E-004	..........a	-327.66
	27	7.23333	5.43515E-001	5.43883E-001	2.46289E-004	..........a	-327.66
	28	7.49167	5.43630E-001	5.44029E-001	2.57689E-004	..........a	-327.66
	29	7.75	5.43753E-001	5.44163E-001	2.43889E-004	..........a	-327.66
	30	8.00833	5.43881E-001	5.44262E-001	2.40822E-004	..........a	-327.66
	31	8.26667	5.44011E-001	5.44391E-001	2.50889E-004	..........a	-327.66
	32	8.525	5.44139E-001	5.44559E-001	2.37422E-004	..........a	-327.66
	33	8.78333	5.44267E-001	5.44720E-001	2.49956E-004	..........a	-327.66
	34	9.04167	5.44402E-001	5.44824E-001	2.49422E-004	..........a	-327.66
	35	9.3	5.44542E-001	5.44889E-001	2.51822E-004	..........a	-327.66
	36	9.5583	5.44675E-001	5.45000E-001	2.48622E-004	..........a	-327.66
	37	9.8167	5.44793E-001	5.45111E-001	2.43356E-004	..........a	-327.66
	38	10.075	5.44898E-001	5.45238E-001	2.42622E-004	..........a	-327.66
EOC	QUANT	0.5448983	Open Circuit (V)
PSTATMODEL	IQUANT	7	Pstat Model
PSTATSECTION	LABEL	REF600P-43058	Pstat Section
PSTATSERIALNO	LABEL	43058	Pstat Serial Number
CTRLMODE	IQUANT	1	Control Mode
ELECTROMETER	IQUANT	0	RE=0 or CS=1
IESTAB	IQUANT	2	I/E Stability
CASPEED	IQUANT	4	Control Amp Speed
CONVENTION	IQUANT	1	Current Convention
ICHRANGE	IQUANT	2	Ich Range
ICHRANGEMODE	TOGGLE	F	Ich Auto Range
ICHOFFSETENABLE	TOGGLE	F	Ich Offset Enable
ICHOFFSET	QUANT	0	Ich Offset (V)
ICHFILTER	IQUANT	1	Ich Filter
VCHRANGE	IQUANT	2	Vch Range
VCHRANGEMODE	TOGGLE	F	Vch Auto Range
VCHOFFSETENABLE	TOGGLE	F	Vch Offset Enable
VCHOFFSET	QUANT	0	Vch Offset (V)
VCHFILTER	IQUANT	1	Vch Filter
ACHRANGE	IQUANT	2	Ach Range
ACHOFFSETENABLE	TOGGLE	F	Ach Offset Enable
ACHOFFSET	QUANT	0	Ach Offset (V)
ACHFILTER	IQUANT	1	Ach Filter
IERANGELOWERLIMIT	IQUANT	1	I/E Range Lower Limit
IERANGEMODE	TOGGLE	F	I/E AutoRange
IERANGE	IQUANT	4	I/E Range
POSFEEDENABLE	TOGGLE	F	Positive Feedback IR Comp
POSFEEDRESISTANCE	QUANT	0	Positive Feedback Resistance (ohm)
ACHSELECT	IQUANT	4	Ach Select
SENSECABLEID	IQUANT	7	Sense Cable ID
PWRCABLEID	IQUANT	7	Power Cable ID
DCCALDATE	LABEL	12/18/2023	DC Calibration Date
ACCALDATE	LABEL	12/18/2023	AC Calibration Date
THERMOSELECT	IQUANT	1	Thermo Select
FRAMEWORKVERSION	LABEL	7.8.4	Framework Version
INSTRUMENTVERSION	LABEL	4.42	Instrument Version
CURVE1	TABLE
	Pt	T	Vf	Im	Vu	Sig	Ach	IERange	Over	Temp
	#	s	V vs. Ref.	A	V	V	V	#	bits	deg C
	0	0.0002	5.44869E-001	1.67883E-011	0.00000E+000	5.44900E-001	8.00223E-005	4	..........a	-327.66
	3	0.0008	5.14870E-001	-1.06216E-010	0.00000E+000	5.14900E-001	8.00223E-005	4	..........a	-327.66
	6	0.0014	4.84870E-001	-2.47222E-010	0.00000E+000	4.84900E-001	8.00223E-005	4	..........a	-327.66
	9	0.002	4.54920E-001	-4.07228E-010	0.00000E+000	4.54900E-001	8.00223E-005	4	..........a	-327.66
	12	0.0026	4.25070E-001	-5.86235E-010	0.00000E+000	4.24900E-001	8.00223E-005	4	..........a	-327.66
	15	0.0032	3.94870E-001	-7.94243E-010	0.00000E+000	3.94900E-001	8.00223E-005	4	..........a	-327.66
	18	0.0038	3.64770E-001	-1.02225E-009	0.00000E+000	3.64900E-001	8.00223E-005	4	..........a	-327.66
	21	0.0044	3.34970E-001	-1.28726E-009	0.00000E+000	3.34900E-001	8.00223E-005	4	..........a	-327.66
	24	0.005	3.04970E-001	-1.59727E-009	0.00000E+000	3.04900E-001	8.00223E-005	4	..........a	-327.66
	27	0.0056	2.74870E-001	-1.96229E-009	0.00000E+000	2.74900E-001	8.00223E-005	4	..........a	-327.66
	30	0.0062	2.44870E-001	-2.38630E-009	0.00000E+000	2.44900E-001	8.00223E-005	4	..........a	-327.66
	33	0.0068	2.14870E-001	-2.88032E-009	0.00000E+000	2.14900E-001	8.00223E-005	4	..........a	-327.66
	36	0.0074	1.84970E-001	-3.46235E-009	0.00000E+000	1.84900E-001	8.00223E-005	4	..........a	-327.66
	39	0.008	1.54970E-001	-4.12137E-009	0.00000E+000	1.54900E-001	8.00223E-005	4	..........a	-327.66
	42	0.0086	1.24970E-001	-4.85640E-009	0.00000E+000	1.24900E-001	8.00223E-005	4	..........a	-327.66
	45	0.0092	9.49695E-002	-5.67443E-009	0.00000E+000	9.49000E-002	-4.19978E-004	4	..........a	-327.66
	48	0.0098	6.50695E-002	-6.55446E-009	0.00000E+000	6.49000E-002	8.00223E-005	4	..........a	-327.66
	51	0.0104	3.48695E-002	-7.50350E-009	0.00000E+000	3.49000E-002	8.00223E-005	4	..........a	-327.66
	54	0.011	4.96952E-003	-8.50254E-009	0.00000E+000	4.90000E-003	8.00223E-005	4	..........a	-327.66
	57	0.0116	-2.51305E-002	-9.50258E-009	0.00000E+000	-2.51000E-002	8.00223E-005	4	..........a	-327.66
	60	0.0122	-5.49305E-002	-1.04796E-008	0.00000E+000	-5.51000E-002	-3.19978E-004	4	..........a	-327.66
	63	0.0128	-8.50305E-002	-1.14247E-008	0.00000E+000	-8.51000E-002	8.00223E-005	4	..........a	-327.66
	66	0.0134	-1.15030E-001	-1.23387E-008	0.00000E+000	-1.15100E-001	8.00223E-005	4	..........a	-327.66
	69	0.014	-1.45130E-001	-1.32337E-008	0.00000E+000	-1.45100E-001	8.00223E-005	4	..........a	-327.66
	72	0.0146	-1.74930E-001	-1.41088E-008	0.00000E+000	-1.75100E-001	-2.19978E-004	4	..........a	-327.66
	75	0.0152	-2.04930E-001	-1.49588E-008	0.00000E+000	-2.05100E-001	8.00223E-005	4	..........a	-327.66
	78	0.0158	-2.34830E-001	-1.57848E-008	0.00000E+000	-2.35100E-001	-3.19978E-004	4	..........a	-327.66
	81	0.0164	-2.64730E-001	-1.65588E-008	0.00000E+000	-2.65100E-001	8.00223E-005	4	..........a	-327.66
	84	0.017	-2.94830E-001	-1.73049E-008	0.00000E+000	-2.95100E-001	8.00223E-005	4	..........a	-327.66
	87	0.0176	-3.24830E-001	-1.80089E-008	0.00000E+000	-3.25100E-001	8.00223E-005	4	..........a	-327.66
	90	0.0182	-3.55130E-001	-1.86869E-008	0.00000E+000	-3.55100E-001	-3.19978E-004	4	..........a	-327.66
	93	0.0188	-3.85030E-001	-1.93460E-008	0.00000E+000	-3.85100E-001	8.00223E-005	4	..........a	-327.66
	96	0.0194	-4.14930E-001	-1.99930E-008	0.00000E+000	-4.15100E-001	8.00223E-005	4	..........a	-327.66
	99	0.02	-4.45030E-001	-2.06260E-008	0.00000E+000	-4.45100E-001	8.00223E-005	4	..........a	-327.66
	102	0.0206	-4.75030E-001	-2.12630E-008	0.00000E+000	-4.75100E-001	8.00223E-005	4	..........a	-327.66
	105	0.0212	-5.04730E-001	-2.18991E-008	0.00000E+000	-5.05100E-001	8.00223E-005	4	..........a	-327.66
	108	0.0218	-5.34831E-001	-2.25461E-008	0.00000E+000	-5.35100E-001	8.00223E-005	4	..........a	-327.66
	111	0.0224	-5.65031E-001	-2.32171E-008	0.00000E+000	-5.65100E-001	8.00223E-005	4	..........a	-327.66
	114	0.023	-5.94831E-001	-2.39151E-008	0.00000E+000	-5.95100E-001	8.00223E-005	4	..........a	-327.66
	117	0.0236	-5.65130E-001	-2.40271E-008	0.00000E+000	-5.65100E-001	8.00223E-005	4	..........a	-327.66
	120	0.0242	-5.34880E-001	-2.39561E-008	0.00000E+000	-5.35100E-001	8.00223E-005	4	..........a	-327.66
	123	0.0248	-5.04930E-001	-2.37921E-008	0.00000E+000	-5.05100E-001	8.00223E-005	4	..........a	-327.66
	126	0.0254	-4.74930E-001	-2.35751E-008	0.00000E+000	-4.75100E-001	8.00223E-005	4	..........a	-327.66
	129	0.026	-4.44730E-001	-2.33171E-008	0.00000E+000	-4.45100E-001	8.00223E-005	4	..........a	-327.66
	132	0.0266	-4.14830E-001	-2.30311E-008	0.00000E+000	-4.15100E-001	-3.19978E-004	4	..........a	-327.66
	135	0.0272	-3.85130E-001	-2.27341E-008	0.00000E+000	-3.85100E-001	8.00223E-005	4	..........a	-327.66
	138	0.0278	-3.55130E-001	-2.24091E-008	0.00000E+000	-3.55100E-001	8.00223E-005	4	..........a	-327.66
	141	0.0284	-3.24930E-001	-2.20731E-008	0.00000E+000	-3.25100E-001	8.00223E-005	4	..........a	-327.66
	144	0.029	-2.94930E-001	-2.17290E-008	0.00000E+000	-2.95100E-001	8.00223E-005	4	..........a	-327.66
	147	0.0296	-2.65130E-001	-2.13770E-008	0.00000E+000	-2.65100E-001	8.00223E-005	4	..........a	-327.66
	150	0.0302	-2.34830E-001	-2.10130E-008	0.00000E+000	-2.35100E-001	8.00223E-005	4	..........a	-327.66
	153	0.0308	-2.05030E-001	-2.06320E-008	0.00000E+000	-2.05100E-001	8.00223E-005	4	..........a	-327.66
	156	0.0314	-1.74930E-001	-2.02470E-008	0.00000E+000	-1.75100E-001	8.00223E-005	4	..........a	-327.66
	159	0.032	-1.45030E-001	-1.98550E-008	0.00000E+000	-1.45100E-001	8.00223E-005	4	..........a	-327.66
	162	0.0326	-1.15030E-001	-1.94500E-008	0.00000E+000	-1.15100E-001	8.00223E-005	4	..........a	-327.66
	165	0.0332	-8.50305E-002	-1.90419E-008	0.00000E+000	-8.51000E-002	8.00223E-005	4	..........a	-327.66
	168	0.0338	-5.49305E-002	-1.86189E-008	0.00000E+000	-5.51000E-002	8.00223E-005	4	..........a	-327.66
	171	0.0344	-2.51805E-002	-1.81779E-008	0.00000E+000	-2.51000E-002	8.00223E-005	4	..........a	-327.66
	174	0.035	5.06952E-003	-1.77209E-008	0.00000E+000	4.90000E-003	8.00223E-005	4	..........a	-327.66
	177	0.0356	3.49695E-002	-1.72439E-008	0.00000E+000	3.49000E-002	8.00223E-005	4	..........a	-327.66
	180	0.0362	6.52695E-002	-1.67439E-008	0.00000E+000	6.49000E-002	8.00223E-005	4	..........a	-327.66
	183	0.0368	9.49695E-002	-1.62118E-008	0.00000E+000	9.49000E-002	8.00223E-005	4	..........a	-327.66
	186	0.0374	1.24970E-001	-1.56438E-008	0.00000E+000	1.24900E-001	8.00223E-005	4	..........a	-327.66
	189	0.038	1.54970E-001	-1.50278E-008	0.00000E+000	1.54900E-001	-1.19978E-004	4	..........a	-327.66
	192	0.0386	1.85070E-001	-1.43628E-008	0.00000E+000	1.84900E-001	8.00223E-005	4	..........a	-327.66
	195	0.0392	2.14870E-001	-1.36327E-008	0.00000E+000	2.14900E-001	8.00223E-005	4	..........a	-327.66
	198	0.0398	2.45270E-001	-1.28637E-008	0.00000E+000	2.44900E-001	8.00223E-005	4	..........a	-327.66
	201	0.0404	2.74870E-001	-1.20347E-008	0.00000E+000	2.74900E-001	8.00223E-005	4	..........a	-327.66
	204	0.041	3.05070E-001	-1.11506E-008	0.00000E+000	3.04900E-001	8.00223E-005	4	..........a	-327.66
	207	0.0416	3.34870E-001	-1.02276E-008	0.00000E+000	3.34900E-001	8.00223E-005	4	..........a	-327.66
	210	0.0422	3.64970E-001	-9.27157E-009	0.00000E+000	3.64900E-001	8.00223E-005	4	..........a	-327.66
	213	0.0428	3.94970E-001	-8.28753E-009	0.00000E+000	3.94900E-001	8.00223E-005	4	..........a	-327.66
	216	0.0434	4.25020E-001	-7.28749E-009	0.00000E+000	4.24900E-001	8.00223E-005	4	..........a	-327.66
	219	0.044	4.54870E-001	-6.26845E-009	0.00000E+000	4.54900E-001	8.00223E-005	4	..........a	-327.66
	222	0.0446	4.84820E-001	-5.24841E-009	0.00000E+000	4.84900E-001	-3.19978E-004	4	..........a	-327.66
	225	0.0452	5.14769E-001	-4.23438E-009	0.00000E+000	5.14900E-001	8.00223E-005	4	..........a	-327.66
	228	0.0458	5.45069E-001	-3.22634E-009	0.00000E+000	5.44900E-001	8.00223E-005	4	..........a	-327.66
	231	0.0464	5.74969E-001	-2.22830E-009	0.00000E+000	5.74900E-001	8.00223E-005	4	..........a	-327.66
	234	0.047	6.04769E-001	-1.24026E-009	0.00000E+000	6.04900E-001	-3.19978E-004	4	..........a	-327.66
	237	0.0476	6.34769E-001	-2.71223E-010	0.00000E+000	6.34900E-001	8.00223E-005	4	..........a	-327.66
	240	0.0482	6.64970E-001	7.01815E-010	0.00000E+000	6.64900E-001	8.00223E-005	4	..........a	-327.66
	243	0.0488	6.94669E-001	1.65785E-009	0.00000E+000	6.94900E-001	8.00223E-005	4	..........a	-327.66
	246	0.0494	7.24769E-001	2.62389E-009	0.00000E+000	7.24900E-001	8.00223E-005	4	..........a	-327.66
	249	0.05	7.54819E-001	3.59293E-009	0.00000E+000	7.54900E-001	8.00223E-005	4	..........a	-327.66
	252	0.0506	7.84719E-001	4.57496E-009	0.00000E+000	7.84900E-001	8.00223E-005	4	..........a	-327.66
	253	0.0508	7.94869E-001	4.90698E-009	0.00000E+000	7.94900E-001	8.00223E-005	4	..........a	-327.66
CURVE2	TABLE
	Pt	T	Vf	Im	Vu	Sig	Ach	IERange	Over	Temp
	#	s	V vs. Ref.	A	V	V	V	#	bits	deg C
	254	0.051	7.89970E-001	5.11898E-009	0.00000E+000	7.90000E-001	8.00223E-005	4	..........a	-327.66
	257	0.0516	7.59769E-001	5.39399E-009	0.00000E+000	7.60000E-001	8.00223E-005	4	..........a	-327.66
	260	0.0522	7.29970E-001	5.43200E-009	0.00000E+000	7.30000E-001	8.00223E-005	4	..........a	-327.66
	263	0.0528	6.99969E-001	5.34199E-009	0.00000E+000	7.00000E-001	8.00223E-005	4	..........a	-327.66
	266	0.0534	6.69869E-001	5.18199E-009	0.00000E+000	6.70000E-001	8.00223E-005	4	..........a	-327.66
	269	0.054	6.39669E-001	4.96298E-009	0.00000E+000	6.40000E-001	8.00223E-005	4	..........a	-327.66
	272	0.0546	6.10070E-001	4.69697E-009	0.00000E+000	6.10000E-001	8.00223E-005	4	..........a	-327.66
	275	0.0552	5.79719E-001	4.39796E-009	0.00000E+000	5.80000E-001	-3.19978E-004	4	..........a	-327.66
	278	0.0558	5.50070E-001	4.05594E-009	0.00000E+000	5.50000E-001	8.00223E-005	4	..........a	-327.66
	281	0.0564	5.19870E-001	3.67793E-009	0.00000E+000	5.20000E-001	8.00223E-005	4	..........a	-327.66
	284	0.057	4.89970E-001	3.25891E-009	0.00000E+000	4.90000E-001	8.00223E-005	4	..........a	-327.66
	287	0.0576	4.59970E-001	2.78989E-009	0.00000E+000	4.60000E-001	8.00223E-005	4	..........a	-327.66
	290	0.0582	4.30070E-001	2.27287E-009	0.00000E+000	4.30000E-001	-3.19978E-004	4	..........a	-327.66
	293	0.0588	3.99970E-001	1.68785E-009	0.00000E+000	4.00000E-001	8.00223E-005	4	..........a	-327.66
	296	0.0594	3.69970E-001	1.03383E-009	0.00000E+000	3.70000E-001	8.00223E-005	4	..........a	-327.66
	299	0.06	3.39870E-001	3.08800E-010	0.00000E+000	3.40000E-001	-3.19978E-004	4	..........a	-327.66
	302	0.0606	3.09970E-001	-4.94231E-010	0.00000E+000	3.10000E-001	8.00223E-005	4	..........a	-327.66
	305	0.0612	2.80070E-001	-1.36326E-009	0.00000E+000	2.80000E-001	-3.19978E-004	4	..........a	-327.66
	308	0.0618	2.50070E-001	-2.28430E-009	0.00000E+000	2.50000E-001	-2.19978E-004	4	..........a	-327.66
	311	0.0624	2.20170E-001	-3.23134E-009	0.00000E+000	2.20000E-001	8.00223E-005	4	..........a	-327.66
	314	0.063	1.90070E-001	-4.18137E-009	0.00000E+000	1.90000E-001	8.00223E-005	4	..........a	-327.66
	317	0.0636	1.59970E-001	-5.11541E-009	0.00000E+000	1.60000E-001	8.00223E-005	4	..........a	-327.66
	320	0.0642	1.30170E-001	-6.01544E-009	0.00000E+000	1.30000E-001	8.00223E-005	4	..........a	-327.66
	323	0.0648	1.00170E-001	-6.86148E-009	0.00000E+000	1.00000E-001	8.00223E-005	4	..........a	-327.66
	326	0.0654	6.99695E-002	-7.65351E-009	0.00000E+000	7.00000E-002	8.00223E-005	4	..........a	-327.66
	329	0.066	4.00695E-002	-8.38353E-009	0.00000E+000	4.00000E-002	8.00223E-005	4	..........a	-327.66
	332	0.0666	1.00695E-002	-9.05056E-009	0.00000E+000	1.00000E-002	8.00223E-005	4	..........a	-327.66
	335	0.0672	-1.99305E-002	-9.68258E-009	0.00000E+000	-2.00000E-002	8.00223E-005	4	..........a	-327.66
	338	0.0678	-4.99305E-002	-1.02696E-008	0.00000E+000	-5.00000E-002	8.00223E-005	4	..........a	-327.66
	341	0.0684	-7.98305E-002	-1.08306E-008	0.00000E+000	-8.00000E-002	8.00223E-005	4	..........a	-327.66
	344	0.069	-1.10030E-001	-1.13596E-008	0.00000E+000	-1.10000E-001	8.00223E-005	4	..........a	-327.66
	347	0.0696	-1.39730E-001	-1.18667E-008	0.00000E+000	-1.40000E-001	8.00223E-005	4	..........a	-327.66
	350	0.0702	-1.69930E-001	-1.23577E-008	0.00000E+000	-1.70000E-001	8.00223E-005	4	..........a	-327.66
[...]
	2599	0.52	-2.59830E-001	-6.95448E-009	0.00000E+000	-2.60000E-001	8.00223E-005	4	..........a	-327.66
	2602	0.5206	-2.89980E-001	-7.40350E-009	0.00000E+000	-2.90000E-001	8.00223E-005	4	..........a	-327.66
	2605	0.5212	-3.19930E-001	-7.83851E-009	0.00000E+000	-3.20000E-001	8.00223E-005	4	..........a	-327.66
	2608	0.5218	-3.49930E-001	-8.26953E-009	0.00000E+000	-3.50000E-001	8.00223E-005	4	..........a	-327.66
	2611	0.5224	-3.79880E-001	-8.70255E-009	0.00000E+000	-3.80000E-001	8.00223E-005	4	..........a	-327.66
	2614	0.523	-4.09930E-001	-9.13056E-009	0.00000E+000	-4.10000E-001	8.00223E-005	4	..........a	-327.66
	2617	0.5236	-4.39930E-001	-9.56258E-009	0.00000E+000	-4.40000E-001	8.00223E-005	4	..........a	-327.66
	2620	0.5242	-4.69830E-001	-1.00076E-008	0.00000E+000	-4.70000E-001	8.00223E-005	4	..........a	-327.66
	2623	0.5248	-4.99930E-001	-1.04606E-008	0.00000E+000	-5.00000E-001	8.00223E-005	4	..........a	-327.66
	2626	0.5254	-5.29831E-001	-1.09346E-008	0.00000E+000	-5.30000E-001	8.00223E-005	4	..........a	-327.66
	2629	0.526	-5.59931E-001	-1.14327E-008	0.00000E+000	-5.60000E-001	8.00223E-005	4	..........a	-327.66
	2632	0.5266	-5.89930E-001	-1.19667E-008	0.00000E+000	-5.90000E-001	-2.19978E-004	4	..........a	-327.66
	2635	0.5272	-5.79930E-001	-1.22027E-008	0.00000E+000	-5.80000E-001	8.00223E-005	4	..........a	-327.66
	2638	0.5278	-5.49630E-001	-1.21517E-008	0.00000E+000	-5.50000E-001	8.00223E-005	4	..........a	-327.66
	2641	0.5284	-5.19930E-001	-1.20237E-008	0.00000E+000	-5.20000E-001	8.00223E-005	4	..........a	-327.66
	2644	0.529	-4.89930E-001	-1.18547E-008	0.00000E+000	-4.90000E-001	8.00223E-005	4	..........a	-327.66
	2647	0.5296	-4.59830E-001	-1.16547E-008	0.00000E+000	-4.60000E-001	8.00223E-005	4	..........a	-327.66
	2650	0.5302	-4.30030E-001	-1.14287E-008	0.00000E+000	-4.30000E-001	-2.19978E-004	4	..........a	-327.66
	2653	0.5308	-3.99830E-001	-1.11876E-008	0.00000E+000	-4.00000E-001	8.00223E-005	4	..........a	-327.66
	2656	0.5314	-3.70030E-001	-1.09306E-008	0.00000E+000	-3.70000E-001	8.00223E-005	4	..........a	-327.66
	2659	0.532	-3.39830E-001	-1.06626E-008	0.00000E+000	-3.40000E-001	8.00223E-005	4	..........a	-327.66
	2662	0.5326	-3.09930E-001	-1.03836E-008	0.00000E+000	-3.10000E-001	8.00223E-005	4	..........a	-327.66
	2665	0.5332	-2.79830E-001	-1.00986E-008	0.00000E+000	-2.80000E-001	8.00223E-005	4	..........a	-327.66
	2668	0.5338	-2.50030E-001	-9.80059E-009	0.00000E+000	-2.50000E-001	-2.19978E-004	4	..........a	-327.66
	2671	0.5344	-2.19830E-001	-9.50058E-009	0.00000E+000	-2.20000E-001	8.00223E-005	4	..........a	-327.66
	2674	0.535	-1.90130E-001	-9.18657E-009	0.00000E+000	-1.90000E-001	8.00223E-005	4	..........a	-327.66
	2677	0.5356	-1.60130E-001	-8.87355E-009	0.00000E+000	-1.60000E-001	8.00223E-005	4	..........a	-327.66
	2680	0.5362	-1.29930E-001	-8.54454E-009	0.00000E+000	-1.30000E-001	8.00223E-005	4	..........a	-327.66
	2683	0.5368	-9.98305E-002	-8.22253E-009	0.00000E+000	-1.00000E-001	8.00223E-005	4	..........a	-327.66
	2686	0.5374	-6.99305E-002	-7.87851E-009	0.00000E+000	-7.00000E-002	8.00223E-005	4	..........a	-327.66
	2689	0.538	-4.01305E-002	-7.51950E-009	0.00000E+000	-4.00000E-002	8.00223E-005	4	..........a	-327.66
	2692	0.5386	-9.93048E-003	-7.15849E-009	0.00000E+000	-1.00000E-002	8.00223E-005	4	..........a	-327.66
	2695	0.5392	2.02695E-002	-6.77647E-009	0.00000E+000	2.00000E-002	8.00223E-005	4	..........a	-327.66
	2698	0.5398	5.01695E-002	-6.36946E-009	0.00000E+000	5.00000E-002	8.00223E-005	4	..........a	-327.66
	2701	0.5404	8.00695E-002	-5.93244E-009	0.00000E+000	8.00000E-002	-3.19978E-004	4	..........a	-327.66
	2704	0.541	1.10070E-001	-5.46042E-009	0.00000E+000	1.10000E-001	-3.19978E-004	4	..........a	-327.66
	2707	0.5416	1.40170E-001	-4.93840E-009	0.00000E+000	1.40000E-001	8.00223E-005	4	..........a	-327.66
	2710	0.5422	1.70070E-001	-4.36738E-009	0.00000E+000	1.70000E-001	8.00223E-005	4	..........a	-327.66
	2713	0.5428	2.00270E-001	-3.73636E-009	0.00000E+000	2.00000E-001	8.00223E-005	4	..........a	-327.66
	2716	0.5434	2.29970E-001	-3.03533E-009	0.00000E+000	2.30000E-001	8.00223E-005	4	..........a	-327.66
	2719	0.544	2.59870E-001	-2.28130E-009	0.00000E+000	2.60000E-001	8.00223E-005	4	..........a	-327.66
	2722	0.5446	2.90070E-001	-1.46627E-009	0.00000E+000	2.90000E-001	8.00223E-005	4	..........a	-327.66
	2725	0.5452	3.20170E-001	-5.98235E-010	0.00000E+000	3.20000E-001	8.00223E-005	4	..........a	-327.66
	2728	0.5458	3.49820E-001	3.13800E-010	0.00000E+000	3.50000E-001	8.00223E-005	4	..........a	-327.66
	2731	0.5464	3.80170E-001	1.24984E-009	0.00000E+000	3.80000E-001	8.00223E-005	4	..........a	-327.66
	2734	0.547	4.09970E-001	2.21987E-009	0.00000E+000	4.10000E-001	8.00223E-005	4	..........a	-327.66
	2737	0.5476	4.39970E-001	3.19291E-009	0.00000E+000	4.40000E-001	8.00223E-005	4	..........a	-327.66
	2740	0.5482	4.69870E-001	4.17895E-009	0.00000E+000	4.70000E-001	8.00223E-005	4	..........a	-327.66
	2743	0.5488	4.99870E-001	5.15899E-009	0.00000E+000	5.00000E-001	8.00223E-005	4	..........a	-327.66
	2746	0.5494	5.30069E-001	6.13202E-009	0.00000E+000	5.30000E-001	8.00223E-005	4	..........a	-327.66
	2749	0.55	5.59969E-001	7.08906E-009	0.00000E+000	5.60000E-001	8.00223E-005	4	..........a	-327.66
	2752	0.5506	5.89969E-001	8.03110E-009	0.00000E+000	5.90000E-001	8.00223E-005	4	..........a	-327.66
	2755	0.5512	6.19669E-001	8.95913E-009	0.00000E+000	6.20000E-001	8.00223E-005	4	..........a	-327.66
	2758	0.5518	6.49870E-001	9.87817E-009	0.00000E+000	6.50000E-001	8.00223E-005	4	..........a	-327.66
	2761	0.5524	6.79569E-001	1.07952E-008	0.00000E+000	6.80000E-001	8.00223E-005	4	..........a	-327.66
	2764	0.553	7.09870E-001	1.17052E-008	0.00000E+000	7.10000E-001	8.00223E-005	4	..........a	-327.66
	2767	0.5536	7.39769E-001	1.26193E-008	0.00000E+000	7.40000E-001	8.00223E-005	4	..........a	-327.66
	2770	0.5542	7.69870E-001	1.35383E-008	0.00000E+000	7.70000E-001	8.00223E-005	4	..........a	-327.66
	2773	0.5548	7.99769E-001	1.44773E-008	0.00000E+000	8.00000E-001	8.00223E-005	4	..........a	-327.66
CURVE11	TABLE
	Pt	T	Vf	Im	Vu	Sig	Ach	IERange	Over	Temp
	#	s	V vs. Ref.	A	V	V	V	#	bits	deg C
	2774	0.555	7.89869E-001	1.46233E-008	0.00000E+000	7.90000E-001	8.00223E-005	4	..........a	-327.66
	2775	0.5552	7.79669E-001	1.47134E-008	0.00000E+000	7.80000E-001	8.00223E-005	4	..........a	-327.66
	2776	0.5554	7.69870E-001	1.47594E-008	0.00000E+000	7.70000E-001	8.00223E-005	4	..........a	-327.66
	2777	0.5556	7.59769E-001	1.47784E-008	0.00000E+000	7.60000E-001	8.00223E-005	4	..........a	-327.66
	2778	0.5558	7.49770E-001	1.47764E-008	0.00000E+000	7.50000E-001	8.00223E-005	4	..........a	-327.66
	2779	0.556	7.39670E-001	1.47514E-008	0.00000E+000	7.40000E-001	-3.19978E-004	4	..........a	-327.66
	2780	0.5562	7.29769E-001	1.47124E-008	0.00000E+000	7.30000E-001	8.00223E-005	4	..........a	-327.66
	2781	0.5564	7.19769E-001	1.46634E-008	0.00000E+000	7.20000E-001	8.00223E-005	4	..........a	-327.66
	2782	0.5566	7.09769E-001	1.45973E-008	0.00000E+000	7.10000E-001	8.00223E-005	4	..........a	-327.66
	2783	0.5568	6.99769E-001	1.45243E-008	0.00000E+000	7.00000E-001	8.00223E-005	4	..........a	-327.66
	2784	0.557	6.89770E-001	1.44453E-008	0.00000E+000	6.90000E-001	8.00223E-005	4	..........a	-327.66
	2785	0.5572	6.79869E-001	1.43553E-008	0.00000E+000	6.80000E-001	8.00223E-005	4	..........a	-327.66
	2786	0.5574	6.69869E-001	1.42613E-008	0.00000E+000	6.70000E-001	8.00223E-005	4	..........a	-327.66
	2787	0.5576	6.59869E-001	1.41563E-008	0.00000E+000	6.60000E-001	8.00223E-005	4	..........a	-327.66
	2788	0.5578	6.49870E-001	1.40443E-008	0.00000E+000	6.50000E-001	8.00223E-005	4	..........a	-327.66
	2789	0.558	6.39870E-001	1.39383E-008	0.00000E+000	6.40000E-001	8.00223E-005	4	..........a	-327.66
	2790	0.5582	6.29969E-001	1.38203E-008	0.00000E+000	6.30000E-001	8.00223E-005	4	..........a	-327.66
	2791	0.5584	6.19769E-001	1.36953E-008	0.00000E+000	6.20000E-001	8.00223E-005	4	..........a	-327.66
	2792	0.5586	6.09769E-001	1.35663E-008	0.00000E+000	6.10000E-001	-4.19978E-004	4	..........a	-327.66
	2793	0.5588	5.99970E-001	1.34403E-008	0.00000E+000	6.00000E-001	-1.19978E-004	4	..........a	-327.66
	2794	0.559	5.89969E-001	1.32963E-008	0.00000E+000	5.90000E-001	8.00223E-005	4	..........a	-327.66
	2795	0.5592	5.79769E-001	1.31563E-008	0.00000E+000	5.80000E-001	8.00223E-005	4	..........a	-327.66
	2796	0.5594	5.70069E-001	1.30143E-008	0.00000E+000	5.70000E-001	8.00223E-005	4	..........a	-327.66
	2797	0.5596	5.59969E-001	1.28603E-008	0.00000E+000	5.60000E-001	8.00223E-005	4	..........a	-327.66
	2798	0.5598	5.49869E-001	1.27063E-008	0.00000E+000	5.50000E-001	8.00223E-005	4	..........a	-327.66