File: example_project/raw_outputs/20240424_W_GM0016_HL03_E06_CV50.DTA
EXPLAIN
TAG	CV
TITLE	LABEL	Cyclic Voltammetry	Test &Identifier
DATE	LABEL	4/24/2024	Date
TIME	LABEL	18:02:25	Time
NOTES	NOTES	1	&Notes...

PSTAT	PSTAT	REF600P-43058	Potentiostat
VINIT	POTEN	0.00000E+000	T	Initial &E (V)
VLIMIT1	POTEN	-6.00000E-001	F	Scan Limit &1 (V)
VLIMIT2	POTEN	8.00000E-001	F	Scan Limit &2 (V)
VFINAL	POTEN	0.00000E+000	T	Final &E (V)
SCANRATE	QUANT	4.99999E+001	&Scan Rate (mV/s)
STEPSIZE	QUANT	1.00000E+001	St&ep Size (mV)
CYCLES	IQUANT	4	C&ycles (#)
IMODE	SELECTOR	0	I/E Range &Mode
IRANGE	QUANT	1.00000E-005	&Max Current (mA)
AREA	QUANT	1.00000E+000	Electrode &Area (cm^2)
ELECTRODETYPE	SELECTOR	0	Electrode Type
STRIPPING	TOGGLE	F	Used for Stripping
POLARITY	TOGGLE	F	Signal Polarity
CONDIT	TWOPARAM	F	1.50000E+001	0.00000E+000	Conditionin&g	Time(s)	E(V)
DELAY	TWOPARAM	T	1.00000E+001	0.00000E+000	Init. De&lay	Time(s)	Stab.(mV/s)
EQDELAY	QUANT	1.00000E+001	Equil. &Time (s)
IRCOMP	SELECTOR	0	IRCom&p
PFCOR	QUANT	5.00000E+001	PF Corr. (ohm)
SAMPLINGMODE	SELECTOR	1	Sampling &Mode
OCVCURVE	TABLE	39
	Pt	T	Vf	Vm	Ach	Over	Temp
	#	s	V vs. Ref.	V	V	bits	deg C
	0	0.258333	-1.17313E-001	-1.17313E-001	2.49192E-004	..........a	-327.66
	1	0.516667	-1.17317E-001	-1.17539E-001	2.44859E-004	..........a	-327.66
	2	0.775	-1.17344E-001	-1.17763E-001	2.52059E-004	..........a	-327.66
	3	1.03333	-1.17420E-001	-1.17976E-001	2.49259E-004	..........a	-327.66
	4	1.29167	-1.17557E-001	-1.18193E-001	2.57926E-004	..........a	-327.66
	5	1.55	-1.17743E-001	-1.18411E-001	2.54726E-004	..........a	-327.66
	6	1.80833	-1.17953E-001	-1.18612E-001	2.42459E-004	..........a	-327.66
	7	2.06667	-1.18170E-001	-1.18819E-001	2.44326E-004	..........a	-327.66
	8	2.325	-1.18385E-001	-1.19039E-001	2.55059E-004	..........a	-327.66
	9	2.58333	-1.18597E-001	-1.19230E-001	2.40526E-004	..........a	-327.66
	10	2.84167	-1.18806E-001	-1.19427E-001	2.36459E-004	..........a	-327.66
	11	3.1	-1.19012E-001	-1.19612E-001	2.38592E-004	..........a	-327.66
	12	3.35833	-1.19212E-001	-1.19787E-001	2.65326E-004	..........a	-327.66
	13	3.61667	-1.19405E-001	-1.19964E-001	2.54059E-004	..........a	-327.66
	14	3.875	-1.19592E-001	-1.20144E-001	2.46459E-004	..........a	-327.66
	15	4.13333	-1.19773E-001	-1.20320E-001	2.51726E-004	..........a	-327.66
	16	4.39167	-1.19952E-001	-1.20491E-001	2.53726E-004	..........a	-327.66
	17	4.65	-1.20129E-001	-1.20661E-001	2.64126E-004	..........a	-327.66
	18	4.90833	-1.20304E-001	-1.20832E-001	2.32859E-004	..........a	-327.66
	19	5.16667	-1.20477E-001	-1.21006E-001	2.42992E-004	..........a	-327.66
	20	5.425	-1.20649E-001	-1.21181E-001	2.48859E-004	..........a	-327.66
	21	5.68333	-1.20821E-001	-1.21354E-001	2.45926E-004	..........a	-327.66
	22	5.94167	-1.20994E-001	-1.21563E-001	2.39459E-004	..........a	-327.66
	23	6.2	-1.21170E-001	-1.21684E-001	2.46859E-004	..........a	-327.66
	24	6.45833	-1.21346E-001	-1.21839E-001	2.50059E-004	..........a	-327.66
	25	6.71667	-1.21515E-001	-1.21985E-001	2.37326E-004	..........a	-327.66
	26	6.975	-1.21675E-001	-1.22139E-001	2.40392E-004	..........a	-327.66
	27	7.23333	-1.21828E-001	-1.22291E-001	2.41659E-004	..........a	-327.66
	28	7.49167	-1.21978E-001	-1.22444E-001	2.35459E-004	..........a	-327.66
	29	7.75	-1.22128E-001	-1.22597E-001	2.43592E-004	..........a	-327.66
	30	8.00833	-1.22280E-001	-1.22753E-001	2.51592E-004	..........a	-327.66
	31	8.26667	-1.22433E-001	-1.22909E-001	2.45792E-004	..........a	-327.66
	32	8.525	-1.22586E-001	-1.23064E-001	2.57392E-004	..........a	-327.66
	33	8.78333	-1.22741E-001	-1.23222E-001	2.54259E-004	..........a	-327.66
	34	9.04167	-1.22897E-001	-1.23378E-001	2.46926E-004	..........a	-327.66
	35	9.3	-1.23053E-001	-1.23534E-001	2.54526E-004	..........a	-327.66
	36	9.5583	-1.23209E-001	-1.23686E-001	2.40259E-004	..........a	-327.66
	37	9.8167	-1.23365E-001	-1.23835E-001	2.47259E-004	..........a	-327.66
	38	10.075	-1.23519E-001	-1.23974E-001	2.44459E-004	..........a	-327.66
EOC	QUANT	-0.1235192	Open Circuit (V)
PSTATMODEL	IQUANT	7	Pstat Model
PSTATSECTION	LABEL	REF600P-43058	Pstat Section
PSTATSERIALNO	LABEL	43058	Pstat Serial Number
CTRLMODE	IQUANT	1	Control Mode
ELECTROMETER	IQUANT	0	RE=0 or CS=1
IESTAB	IQUANT	2	I/E Stability
CASPEED	IQUANT	4	Control Amp Speed
CONVENTION	IQUANT	1	Current Convention
ICHRANGE	IQUANT	2	Ich Range
ICHRANGEMODE	TOGGLE	F	Ich Auto Range
ICHOFFSETENABLE	TOGGLE	F	Ich Offset Enable
ICHOFFSET	QUANT	0	Ich Offset (V)
ICHFILTER	IQUANT	2	Ich Filter
VCHRANGE	IQUANT	2	Vch Range
VCHRANGEMODE	TOGGLE	F	Vch Auto Range
VCHOFFSETENABLE	TOGGLE	F	Vch Offset Enable
VCHOFFSET	QUANT	0	Vch Offset (V)
VCHFILTER	IQUANT	2	Vch Filter
ACHRANGE	IQUANT	2	Ach Range
ACHOFFSETENABLE	TOGGLE	F	Ach Offset Enable
ACHOFFSET	QUANT	0	Ach Offset (V)
ACHFILTER	IQUANT	1	Ach Filter
IERANGELOWERLIMIT	IQUANT	1	I/E Range Lower Limit
IERANGEMODE	TOGGLE	T	I/E AutoRange
IERANGE	IQUANT	4	I/E Range
POSFEEDENABLE	TOGGLE	F	Positive Feedback IR Comp
POSFEEDRESISTANCE	QUANT	0	Positive Feedback Resistance (ohm)
ACHSELECT	IQUANT	4	Ach Select
SENSECABLEID	IQUANT	7	Sense Cable ID
PWRCABLEID	IQUANT	7	Power Cable ID
DCCALDATE	LABEL	3/22/2024	DC Calibration Date
ACCALDATE	LABEL	3/22/2024	AC Calibration Date
THERMOSELECT	IQUANT	1	Thermo Select
FRAMEWORKVERSION	LABEL	7.8.4	Framework Version
INSTRUMENTVERSION	LABEL	4.42	Instrument Version
CURVE1	TABLE
	Pt	T	Vf	Im	Vu	Sig	Ach	IERange	Over	Temp
	#	s	V vs. Ref.	A	V	V	V	#	bits	deg C
	0	0.2	-1.23480E-001	9.10110E-010	0.00000E+000	-1.23500E-001	1.01809E-003	5	..........a	-327.66
	2	0.6	-1.43451E-001	-2.27873E-009	0.00000E+000	-1.43500E-001	1.00279E-003	5	..........a	-327.66
	4	1	-1.63436E-001	-4.49195E-009	0.00000E+000	-1.63500E-001	1.02449E-003	5	..........a	-327.66
	6	1.4	-1.83464E-001	-6.52160E-009	0.00000E+000	-1.83500E-001	9.97992E-004	5	..........a	-327.66
	8	1.8	-2.03428E-001	-8.48980E-009	0.00000E+000	-2.03500E-001	9.99892E-004	5	..........a	-327.66
	10	2.2	-2.23418E-001	-1.04866E-008	0.00000E+000	-2.23500E-001	1.01639E-003	5	..........a	-327.66
	12	2.6	-2.43421E-001	-1.24004E-008	0.00000E+000	-2.43500E-001	1.01619E-003	5	..........a	-327.66
	14	3	-2.63419E-001	-1.43343E-008	0.00000E+000	-2.63500E-001	1.00059E-003	5	..........a	-327.66
	16	3.4	-2.83413E-001	-1.62791E-008	0.00000E+000	-2.83500E-001	1.00249E-003	5	..........a	-327.66
	18	3.8	-3.03408E-001	-1.82288E-008	0.00000E+000	-3.03500E-001	1.02349E-003	5	..........a	-327.66
	20	4.2	-3.23410E-001	-2.01893E-008	0.00000E+000	-3.23500E-001	1.00279E-003	5	..........a	-327.66
	22	4.6	-3.43432E-001	-2.21563E-008	0.00000E+000	-3.43500E-001	1.00799E-003	5	..........a	-327.66
	24	5	-3.63411E-001	-2.41086E-008	0.00000E+000	-3.63500E-001	1.00089E-003	5	..........a	-327.66
	26	5.4	-3.83431E-001	-2.61179E-008	0.00000E+000	-3.83500E-001	9.94592E-004	5	..........a	-327.66
	28	5.8	-4.03416E-001	-2.80538E-008	0.00000E+000	-4.03500E-001	9.88792E-004	5	..........a	-327.66
	30	6.2	-4.23390E-001	-2.99903E-008	0.00000E+000	-4.23500E-001	9.90292E-004	5	..........a	-327.66
	32	6.6	-4.43396E-001	-3.19125E-008	0.00000E+000	-4.43500E-001	9.92692E-004	5	..........a	-327.66
	34	7	-4.63368E-001	-3.38303E-008	0.00000E+000	-4.63500E-001	9.94592E-004	5	..........a	-327.66
	36	7.4	-4.83379E-001	-3.57226E-008	0.00000E+000	-4.83500E-001	1.01319E-003	5	..........a	-327.66
	38	7.8	-5.03385E-001	-3.76140E-008	0.00000E+000	-5.03500E-001	1.00609E-003	5	..........a	-327.66
	40	8.2	-5.23384E-001	-3.95450E-008	0.00000E+000	-5.23500E-001	9.82092E-004	5	..........a	-327.66
	42	8.6	-5.43408E-001	-4.15905E-008	0.00000E+000	-5.43500E-001	1.01749E-003	5	..........a	-327.66
	44	9	-5.63394E-001	-4.36625E-008	0.00000E+000	-5.63500E-001	1.01329E-003	5	..........a	-327.66
	46	9.4	-5.83389E-001	-4.59005E-008	0.00000E+000	-5.83500E-001	9.98792E-004	5	..........a	-327.66
	48	9.8	-6.03389E-001	-4.84440E-008	0.00000E+000	-6.03500E-001	1.01459E-003	5	..........a	-327.66
	50	10.2	-5.83395E-001	-3.76241E-008	0.00000E+000	-5.83500E-001	1.00949E-003	5	..........a	-327.66
	52	10.6	-5.63396E-001	-3.19979E-008	0.00000E+000	-5.63500E-001	1.01569E-003	5	..........a	-327.66
	54	11	-5.43432E-001	-2.79363E-008	0.00000E+000	-5.43500E-001	1.01389E-003	5	..........a	-327.66
	56	11.4	-5.23392E-001	-2.47002E-008	0.00000E+000	-5.23500E-001	1.00539E-003	5	..........a	-327.66
	58	11.8	-5.03397E-001	-2.19912E-008	0.00000E+000	-5.03500E-001	1.00519E-003	5	..........a	-327.66
	60	12.2	-4.83394E-001	-1.95740E-008	0.00000E+000	-4.83500E-001	1.00859E-003	5	..........a	-327.66
	62	12.6	-4.63389E-001	-1.73672E-008	0.00000E+000	-4.63500E-001	1.00329E-003	5	..........a	-327.66
	64	13	-4.43411E-001	-1.53503E-008	0.00000E+000	-4.43500E-001	1.01169E-003	5	..........a	-327.66
	66	13.4	-4.23396E-001	-1.34294E-008	0.00000E+000	-4.23500E-001	1.00499E-003	5	..........a	-327.66
	68	13.8	-4.03418E-001	-1.15855E-008	0.00000E+000	-4.03500E-001	9.91492E-004	5	..........a	-327.66
	70	14.2	-3.83430E-001	-9.78072E-009	0.00000E+000	-3.83500E-001	1.01329E-003	5	..........a	-327.66
	72	14.6	-3.63417E-001	-8.04888E-009	0.00000E+000	-3.63500E-001	9.84892E-004	5	..........a	-327.66
	74	15	-3.43431E-001	-6.31752E-009	0.00000E+000	-3.43500E-001	1.01239E-003	5	..........a	-327.66
	76	15.4	-3.23419E-001	-4.65222E-009	0.00000E+000	-3.23500E-001	9.94392E-004	5	..........a	-327.66
	78	15.8	-3.03422E-001	-3.06095E-009	0.00000E+000	-3.03500E-001	9.85292E-004	5	..........a	-327.66
	80	16.2	-2.83458E-001	-1.47902E-009	0.00000E+000	-2.83500E-001	1.00849E-003	5	..........a	-327.66
	82	16.6	-2.63465E-001	4.74283E-011	0.00000E+000	-2.63500E-001	9.99092E-004	5	..........a	-327.66
	84	17	-2.43425E-001	1.61362E-009	0.00000E+000	-2.43500E-001	9.95292E-004	5	..........a	-327.66
	86	17.4	-2.23434E-001	3.07399E-009	0.00000E+000	-2.23500E-001	1.01419E-003	5	..........a	-327.66
	88	17.8	-2.03491E-001	4.50790E-009	0.00000E+000	-2.03500E-001	1.01579E-003	5	..........a	-327.66
	90	18.2	-1.83464E-001	5.92327E-009	0.00000E+000	-1.83500E-001	1.00759E-003	5	..........a	-327.66
	92	18.6	-1.63458E-001	7.33830E-009	0.00000E+000	-1.63500E-001	1.01089E-003	5	..........a	-327.66
	94	19	-1.43463E-001	8.75470E-009	0.00000E+000	-1.43500E-001	1.02049E-003	5	..........a	-327.66
	96	19.4	-1.23466E-001	1.01752E-008	0.00000E+000	-1.23500E-001	1.01759E-003	5	..........a	-327.66
	98	19.8	-1.03482E-001	1.16260E-008	0.00000E+000	-1.03500E-001	1.01509E-003	5	..........a	-327.66
	100	20.2	-8.35403E-002	1.31218E-008	0.00000E+000	-8.35000E-002	1.01399E-003	5	..........a	-327.66
	102	20.6	-6.34698E-002	1.46651E-008	0.00000E+000	-6.35000E-002	1.01039E-003	5	..........a	-327.66
	104	21	-4.34532E-002	1.62913E-008	0.00000E+000	-4.35000E-002	9.90292E-004	5	..........a	-327.66
	106	21.4	-2.35161E-002	1.79897E-008	0.00000E+000	-2.35000E-002	1.00699E-003	5	..........a	-327.66
	108	21.8	-3.46971E-003	1.97229E-008	0.00000E+000	-3.49999E-003	9.99992E-004	5	..........a	-327.66
	110	22.2	1.65449E-002	2.14636E-008	0.00000E+000	1.65000E-002	9.88392E-004	5	..........a	-327.66
	112	22.6	3.65385E-002	2.32164E-008	0.00000E+000	3.65000E-002	9.94492E-004	5	..........a	-327.66
	114	23	5.65417E-002	2.51607E-008	0.00000E+000	5.65000E-002	1.00849E-003	5	..........a	-327.66
	116	23.4	7.65069E-002	2.73049E-008	0.00000E+000	7.65000E-002	1.01899E-003	5	..........a	-327.66
	118	23.8	9.65034E-002	2.97092E-008	0.00000E+000	9.65000E-002	1.00619E-003	5	..........a	-327.66
	120	24.2	1.16506E-001	3.25432E-008	0.00000E+000	1.16500E-001	1.02059E-003	5	..........a	-327.66
	122	24.6	1.36557E-001	3.69566E-008	0.00000E+000	1.36500E-001	1.00009E-003	5	..........a	-327.66
	124	25	1.56487E-001	5.45933E-008	0.00000E+000	1.56500E-001	1.01629E-003	5	..........a	-327.66
	126	25.4	1.76486E-001	4.40414E-008	0.00000E+000	1.76500E-001	1.00989E-003	5	..........a	-327.66
	128	25.8	1.96492E-001	4.53076E-008	0.00000E+000	1.96500E-001	1.00549E-003	5	..........a	-327.66
	130	26.2	2.16512E-001	4.82817E-008	0.00000E+000	2.16500E-001	1.00989E-003	5	..........a	-327.66
	132	26.6	2.36497E-001	5.16277E-008	0.00000E+000	2.36500E-001	1.01799E-003	5	..........a	-327.66
	134	27	2.56435E-001	5.51564E-008	0.00000E+000	2.56500E-001	1.02699E-003	5	..........a	-327.66
	136	27.4	2.76453E-001	5.86440E-008	0.00000E+000	2.76500E-001	1.02139E-003	5	..........a	-327.66
	138	27.8	2.96357E-001	6.22107E-008	0.00000E+000	2.96500E-001	1.00159E-003	5	..........a	-327.66
	140	28.2	3.16510E-001	6.59176E-008	0.00000E+000	3.16500E-001	1.00759E-003	5	..........a	-327.66
	142	28.6	3.36475E-001	7.00384E-008	0.00000E+000	3.36500E-001	1.02669E-003	5	..........a	-327.66
	144	29	3.56423E-001	7.46094E-008	0.00000E+000	3.56500E-001	1.01809E-003	5	..........a	-327.66
	146	29.4	3.76423E-001	7.96146E-008	0.00000E+000	3.76500E-001	1.00219E-003	5	..........a	-327.66
	148	29.8	3.96508E-001	8.51041E-008	0.00000E+000	3.96500E-001	9.99792E-004	5	..........a	-327.66
	150	30.2	4.16438E-001	9.08186E-008	0.00000E+000	4.16500E-001	1.01289E-003	5	..........a	-327.66
	152	30.6	4.36431E-001	9.64962E-008	0.00000E+000	4.36500E-001	1.02519E-003	5	..........a	-327.66
	154	31	4.56419E-001	1.02047E-007	0.00000E+000	4.56500E-001	9.99192E-004	5	..........a	-327.66
	156	31.4	4.76438E-001	1.07533E-007	0.00000E+000	4.76500E-001	1.02899E-003	5	..........a	-327.66
	158	31.8	4.96452E-001	1.12904E-007	0.00000E+000	4.96500E-001	1.02049E-003	5	..........a	-327.66
	160	32.2	5.16445E-001	1.18173E-007	0.00000E+000	5.16500E-001	9.87192E-004	5	..........a	-327.66
	162	32.6	5.36394E-001	1.23254E-007	0.00000E+000	5.36500E-001	1.01129E-003	5	..........a	-327.66
	164	33	5.56403E-001	1.28162E-007	0.00000E+000	5.56500E-001	1.01719E-003	5	..........a	-327.66
	166	33.4	5.76425E-001	1.32894E-007	0.00000E+000	5.76500E-001	9.90592E-004	5	..........a	-327.66
	168	33.8	5.96436E-001	1.37580E-007	0.00000E+000	5.96500E-001	1.01969E-003	5	..........a	-327.66
	170	34.2	6.16359E-001	1.42340E-007	0.00000E+000	6.16500E-001	1.01479E-003	5	..........a	-327.66
	172	34.6	6.36362E-001	1.47169E-007	0.00000E+000	6.36500E-001	1.02939E-003	5	..........a	-327.66
	174	35	6.56386E-001	1.52095E-007	0.00000E+000	6.56500E-001	1.00479E-003	5	..........a	-327.66
	176	35.4	6.76407E-001	1.57177E-007	0.00000E+000	6.76500E-001	1.00969E-003	5	..........a	-327.66
	178	35.8	6.96329E-001	1.62630E-007	0.00000E+000	6.96500E-001	1.00319E-003	5	..........a	-327.66
	180	36.2	7.16377E-001	1.68607E-007	0.00000E+000	7.16500E-001	1.00629E-003	5	..........a	-327.66
	182	36.6	7.36318E-001	1.75301E-007	0.00000E+000	7.36500E-001	1.00129E-003	5	..........a	-327.66
	184	37	7.56421E-001	1.82981E-007	0.00000E+000	7.56500E-001	9.98992E-004	5	..........a	-327.66
	186	37.4	7.76353E-001	1.91791E-007	0.00000E+000	7.76500E-001	9.99092E-004	5	..........a	-327.66
	188	37.8	7.96383E-001	2.01878E-007	0.00000E+000	7.96500E-001	1.02439E-003	5	..........a	-327.66
CURVE2	TABLE
	Pt	T	Vf	Im	Vu	Sig	Ach	IERange	Over	Temp
	#	s	V vs. Ref.	A	V	V	V	#	bits	deg C
	189	38	7.89957E-001	1.68927E-007	0.00000E+000	7.90000E-001	9.94692E-004	5	..........a	-327.66
	192	38.6	7.59887E-001	1.07875E-007	0.00000E+000	7.60000E-001	1.00779E-003	5	..........a	-327.66
	195	39.2	7.29889E-001	8.04164E-008	0.00000E+000	7.30000E-001	1.01249E-003	5	..........a	-327.66
	198	39.8	6.99916E-001	6.41274E-008	0.00000E+000	7.00000E-001	1.00539E-003	5	..........a	-327.66
	201	40.4	6.69970E-001	5.27252E-008	0.00000E+000	6.70000E-001	9.97592E-004	5	..........a	-327.66
	204	41	6.39872E-001	4.39020E-008	0.00000E+000	6.40000E-001	1.00559E-003	5	..........a	-327.66
	207	41.6	6.09963E-001	3.66220E-008	0.00000E+000	6.10000E-001	1.01409E-003	5	..........a	-327.66
	210	42.2	5.79978E-001	3.06443E-008	0.00000E+000	5.80000E-001	9.83292E-004	5	..........a	-327.66
	213	42.8	5.50027E-001	2.56688E-008	0.00000E+000	5.50000E-001	1.02399E-003	5	..........a	-327.66
	216	43.4	5.19961E-001	2.10238E-008	0.00000E+000	5.20000E-001	1.01769E-003	5	..........a	-327.66
	219	44	4.89929E-001	1.72724E-008	0.00000E+000	4.90000E-001	1.02489E-003	5	..........a	-327.66
	222	44.6	4.59995E-001	1.38299E-008	0.00000E+000	4.60000E-001	1.00569E-003	5	..........a	-327.66
	225	45.2	4.29989E-001	1.01269E-008	0.00000E+000	4.30000E-001	1.00899E-003	5	..........a	-327.66
	228	45.8	3.99972E-001	6.34070E-009	0.00000E+000	4.00000E-001	9.90192E-004	5	..........a	-327.66
	231	46.4	3.70006E-001	2.37206E-009	0.00000E+000	3.70000E-001	1.01989E-003	5	..........a	-327.66
	234	47	3.40044E-001	-1.94487E-009	0.00000E+000	3.40000E-001	1.00579E-003	5	..........a	-327.66
	237	47.6	3.10033E-001	-6.56845E-009	0.00000E+000	3.10000E-001	1.01579E-003	5	..........a	-327.66
	240	48.2	2.79969E-001	-1.19421E-008	0.00000E+000	2.80000E-001	1.02219E-003	5	..........a	-327.66
	243	48.8	2.49995E-001	-1.84124E-008	0.00000E+000	2.50000E-001	1.01439E-003	5	..........a	-327.66
	246	49.4	2.20079E-001	-2.55504E-008	0.00000E+000	2.20000E-001	1.00349E-003	5	..........a	-327.66
	249	50	1.90117E-001	-3.15341E-008	0.00000E+000	1.90000E-001	1.01179E-003	5	..........a	-327.66
	252	50.6	1.60053E-001	-3.33758E-008	0.00000E+000	1.60000E-001	1.01759E-003	5	..........a	-327.66
	255	51.2	1.30065E-001	-3.05229E-008	0.00000E+000	1.30000E-001	1.01299E-003	5	..........a	-327.66
	258	51.8	1.00143E-001	-2.55148E-008	0.00000E+000	1.00000E-001	1.02049E-003	5	..........a	-327.66
	261	52.4	7.00362E-002	-2.02388E-008	0.00000E+000	7.00000E-002	1.01869E-003	5	..........a	-327.66
	264	53	3.99983E-002	-1.83433E-008	0.00000E+000	4.00000E-002	1.03099E-003	5	..........a	-327.66
	267	53.6	1.01010E-002	-1.82205E-008	0.00000E+000	1.00000E-002	1.00039E-003	5	..........a	-327.66
[...]
	1034	207	7.39912E-001	7.03910E-008	0.00000E+000	7.40000E-001	1.01019E-003	5	..........a	-327.66
	1035	207.2	7.29885E-001	6.44344E-008	0.00000E+000	7.30000E-001	1.02829E-003	5	..........a	-327.66
	1036	207.4	7.19886E-001	5.93816E-008	0.00000E+000	7.20000E-001	1.01609E-003	5	..........a	-327.66
	1037	207.6	7.09973E-001	5.50279E-008	0.00000E+000	7.10000E-001	1.03549E-003	5	..........a	-327.66
	1038	207.8	6.99920E-001	5.12042E-008	0.00000E+000	7.00000E-001	1.00949E-003	5	..........a	-327.66
	1039	208	6.89916E-001	4.77762E-008	0.00000E+000	6.90000E-001	1.02609E-003	5	..........a	-327.66
	1040	208.2	6.79958E-001	4.46599E-008	0.00000E+000	6.80000E-001	9.97892E-004	5	..........a	-327.66
	1041	208.4	6.69974E-001	4.17888E-008	0.00000E+000	6.70000E-001	1.01449E-003	5	..........a	-327.66
	1042	208.6	6.59949E-001	3.90983E-008	0.00000E+000	6.60000E-001	9.90292E-004	5	..........a	-327.66
	1043	208.8	6.49967E-001	3.66352E-008	0.00000E+000	6.50000E-001	1.02229E-003	5	..........a	-327.66
	1044	209	6.39894E-001	3.42496E-008	0.00000E+000	6.40000E-001	1.02309E-003	5	..........a	-327.66
	1045	209.2	6.30047E-001	3.20331E-008	0.00000E+000	6.30000E-001	1.01879E-003	5	..........a	-327.66
	1046	209.4	6.19950E-001	2.99239E-008	0.00000E+000	6.20000E-001	1.02269E-003	5	..........a	-327.66
	1047	209.6	6.09950E-001	2.78840E-008	0.00000E+000	6.10000E-001	1.01089E-003	5	..........a	-327.66
	1048	209.8	5.99988E-001	2.60435E-008	0.00000E+000	6.00000E-001	1.01369E-003	5	..........a	-327.66
	1049	210	5.90008E-001	2.43746E-008	0.00000E+000	5.90000E-001	9.98892E-004	5	..........a	-327.66
	1050	210.2	5.80018E-001	2.28147E-008	0.00000E+000	5.80000E-001	9.97492E-004	5	..........a	-327.66
	1051	210.4	5.69980E-001	2.13803E-008	0.00000E+000	5.70000E-001	1.01959E-003	5	..........a	-327.66
	1052	210.6	5.59963E-001	1.99449E-008	0.00000E+000	5.60000E-001	1.02619E-003	5	..........a	-327.66
	1053	210.8	5.50043E-001	1.85140E-008	0.00000E+000	5.50000E-001	1.01049E-003	5	..........a	-327.66
	1054	211	5.40019E-001	1.70612E-008	0.00000E+000	5.40000E-001	1.01239E-003	5	..........a	-327.66
	1055	211.2	5.29963E-001	1.56668E-008	0.00000E+000	5.30000E-001	1.02979E-003	5	..........a	-327.66
	1056	211.4	5.19992E-001	1.43895E-008	0.00000E+000	5.20000E-001	1.00679E-003	5	..........a	-327.66
	1057	211.6	5.09954E-001	1.32025E-008	0.00000E+000	5.10000E-001	1.03139E-003	5	..........a	-327.66
	1058	211.8	5.00091E-001	1.22306E-008	0.00000E+000	5.00000E-001	1.01059E-003	5	..........a	-327.66
	1059	212	4.89968E-001	1.13232E-008	0.00000E+000	4.90000E-001	1.02699E-003	5	..........a	-327.66
	1060	212.2	4.79934E-001	1.04402E-008	0.00000E+000	4.80000E-001	1.04049E-003	5	..........a	-327.66
	1061	212.4	4.70032E-001	9.45116E-009	0.00000E+000	4.70000E-001	1.02309E-003	5	..........a	-327.66
	1062	212.6	4.60011E-001	8.41107E-009	0.00000E+000	4.60000E-001	1.01449E-003	5	..........a	-327.66
	1063	212.8	4.49840E-001	7.29661E-009	0.00000E+000	4.50000E-001	1.01489E-003	5	..........a	-327.66
	1064	213	4.39960E-001	6.21693E-009	0.00000E+000	4.40000E-001	1.02899E-003	5	..........a	-327.66
	1065	213.2	4.30000E-001	5.05854E-009	0.00000E+000	4.30000E-001	1.01379E-003	5	..........a	-327.66
	1066	213.4	4.20017E-001	3.91233E-009	0.00000E+000	4.20000E-001	1.00419E-003	5	..........a	-327.66
	1067	213.6	4.09948E-001	2.71818E-009	0.00000E+000	4.10000E-001	1.03569E-003	5	..........a	-327.66
	1068	213.8	4.00001E-001	1.55537E-009	0.00000E+000	4.00000E-001	1.03169E-003	5	..........a	-327.66
	1069	214	3.90032E-001	3.13648E-010	0.00000E+000	3.90000E-001	1.02129E-003	5	..........a	-327.66
	1070	214.2	3.80084E-001	-9.68370E-010	0.00000E+000	3.80000E-001	9.80892E-004	5	..........a	-327.66
	1071	214.4	3.70036E-001	-2.27440E-009	0.00000E+000	3.70000E-001	1.02899E-003	5	..........a	-327.66
	1072	214.6	3.60057E-001	-3.60685E-009	0.00000E+000	3.60000E-001	1.01729E-003	5	..........a	-327.66
	1073	214.8	3.50068E-001	-5.02857E-009	0.00000E+000	3.50000E-001	1.01499E-003	5	..........a	-327.66
	1074	215	3.40084E-001	-6.44764E-009	0.00000E+000	3.40000E-001	1.00379E-003	5	..........a	-327.66
	1075	215.2	3.30043E-001	-7.91407E-009	0.00000E+000	3.30000E-001	1.00009E-003	5	..........a	-327.66
	1076	215.4	3.20065E-001	-9.51170E-009	0.00000E+000	3.20000E-001	9.95092E-004	5	..........a	-327.66
	1077	215.6	3.10051E-001	-1.12221E-008	0.00000E+000	3.10000E-001	1.01979E-003	5	..........a	-327.66
	1078	215.8	3.00084E-001	-1.29771E-008	0.00000E+000	3.00000E-001	1.00529E-003	5	..........a	-327.66
	1079	216	2.90060E-001	-1.49207E-008	0.00000E+000	2.90000E-001	1.02069E-003	5	..........a	-327.66
	1080	216.2	2.79973E-001	-1.69542E-008	0.00000E+000	2.80000E-001	1.03119E-003	5	..........a	-327.66
	1081	216.4	2.70085E-001	-1.91319E-008	0.00000E+000	2.70000E-001	1.01989E-003	5	..........a	-327.66
	1082	216.6	2.60056E-001	-2.15598E-008	0.00000E+000	2.60000E-001	1.01949E-003	5	..........a	-327.66
	1083	216.8	2.50029E-001	-2.40525E-008	0.00000E+000	2.50000E-001	1.02959E-003	5	..........a	-327.66
	1084	217	2.40060E-001	-2.66530E-008	0.00000E+000	2.40000E-001	1.02129E-003	5	..........a	-327.66
	1085	217.2	2.30036E-001	-2.93206E-008	0.00000E+000	2.30000E-001	1.03599E-003	5	..........a	-327.66
	1086	217.4	2.20149E-001	-3.20654E-008	0.00000E+000	2.20000E-001	1.01609E-003	5	..........a	-327.66
	1087	217.6	2.10062E-001	-3.46219E-008	0.00000E+000	2.10000E-001	1.02709E-003	5	..........a	-327.66
	1088	217.8	2.00062E-001	-3.69335E-008	0.00000E+000	2.00000E-001	1.02929E-003	5	..........a	-327.66
	1089	218	1.90119E-001	-3.88000E-008	0.00000E+000	1.90000E-001	1.01059E-003	5	..........a	-327.66
	1090	218.2	1.80122E-001	-4.00766E-008	0.00000E+000	1.80000E-001	9.92092E-004	5	..........a	-327.66
	1091	218.4	1.70093E-001	-4.06716E-008	0.00000E+000	1.70000E-001	1.00029E-003	5	..........a	-327.66
	1092	218.6	1.60091E-001	-4.05060E-008	0.00000E+000	1.60000E-001	1.01449E-003	5	..........a	-327.66
	1093	218.8	1.50097E-001	-3.96838E-008	0.00000E+000	1.50000E-001	1.01679E-003	5	..........a	-327.66
	1094	219	1.40137E-001	-3.82343E-008	0.00000E+000	1.40000E-001	1.00529E-003	5	..........a	-327.66
	1095	219.2	1.30080E-001	-3.62375E-008	0.00000E+000	1.30000E-001	1.02319E-003	5	..........a	-327.66
	1096	219.4	1.20066E-001	-3.39154E-008	0.00000E+000	1.20000E-001	1.01829E-003	5	..........a	-327.66
	1097	219.6	1.10112E-001	-3.14148E-008	0.00000E+000	1.10000E-001	1.01339E-003	5	..........a	-327.66
	1098	219.8	1.00131E-001	-2.88516E-008	0.00000E+000	1.00000E-001	1.01649E-003	5	..........a	-327.66
	1099	220	9.01046E-002	-2.64021E-008	0.00000E+000	9.00000E-002	1.01509E-003	5	..........a	-327.66
	1100	220.2	8.00697E-002	-2.41904E-008	0.00000E+000	8.00000E-002	1.01269E-003	5	..........a	-327.66
	1101	220.4	7.00193E-002	-2.24241E-008	0.00000E+000	7.00000E-002	1.02959E-003	5	..........a	-327.66
	1102	220.6	6.01184E-002	-2.10835E-008	0.00000E+000	6.00000E-002	1.00079E-003	5	..........a	-327.66
	1103	220.8	5.00525E-002	-2.00907E-008	0.00000E+000	5.00000E-002	9.93892E-004	5	..........a	-327.66
	1104	221	4.00241E-002	-1.94379E-008	0.00000E+000	4.00000E-002	1.01059E-003	5	..........a	-327.66
	1105	221.2	3.00863E-002	-1.89978E-008	0.00000E+000	3.00000E-002	1.01689E-003	5	..........a	-327.66
	1106	221.4	2.01664E-002	-1.87386E-008	0.00000E+000	2.00000E-002	1.01189E-003	5	..........a	-327.66
	1107	221.6	1.01146E-002	-1.86973E-008	0.00000E+000	1.00000E-002	1.00249E-003	5	..........a	-327.66
	1108	221.8	5.52916E-005	-1.91482E-008	0.00000E+000	7.45058E-009	1.00529E-003	5	..........a	-327.66
	1109	222	-9.86471E-003	-1.92066E-008	0.00000E+000	-1.00000E-002	1.01079E-003	5	..........a	-327.66
	1110	222.2	-1.99030E-002	-1.96933E-008	0.00000E+000	-2.00000E-002	9.98592E-004	5	..........a	-327.66
	1111	222.4	-2.99244E-002	-1.96311E-008	0.00000E+000	-3.00000E-002	1.00819E-003	5	..........a	-327.66
	1112	222.6	-3.99053E-002	-1.97049E-008	0.00000E+000	-4.00000E-002	1.01529E-003	5	..........a	-327.66
	1113	222.8	-4.98930E-002	-2.04449E-008	0.00000E+000	-5.00000E-002	1.02479E-003	5	..........a	-327.66
	1114	223	-5.98979E-002	-2.06762E-008	0.00000E+000	-6.00000E-002	9.98492E-004	5	..........a	-327.66
	1115	223.2	-6.99165E-002	-2.09145E-008	0.00000E+000	-7.00000E-002	9.91692E-004	5	..........a	-327.66
	1116	223.4	-7.99220E-002	-2.16450E-008	0.00000E+000	-8.00000E-002	1.01579E-003	5	..........a	-327.66
	1117	223.6	-8.98950E-002	-2.23573E-008	0.00000E+000	-9.00000E-002	1.01049E-003	5	..........a	-327.66
	1118	223.8	-9.98953E-002	-2.33949E-008	0.00000E+000	-1.00000E-001	9.98392E-004	5	..........a	-327.66
	1119	224	-1.09941E-001	-2.43421E-008	0.00000E+000	-1.10000E-001	1.00519E-003	5	..........a	-327.66
	1120	224.2	-1.19906E-001	-2.46109E-008	0.00000E+000	-1.20000E-001	1.02399E-003	5	..........a	-327.66