File: example_project/raw_outputs/20240509_ZZQ_GM0016_HL03_E11_CV50.DTA
EXPLAIN
TAG	CV
TITLE	LABEL	Cyclic Voltammetry	Test &Identifier
DATE	LABEL	5/9/2024	Date
TIME	LABEL	14:43:11	Time
NOTES	NOTES	1	&Notes...

PSTAT	PSTAT	REF600P-43058	Potentiostat
VINIT	POTEN	0.00000E+000	T	Initial &E (V)
VLIMIT1	POTEN	8.00000E-001	F	Scan Limit &1 (V)
VLIMIT2	POTEN	-6.00000E-001	F	Scan Limit &2 (V)
VFINAL	POTEN	0.00000E+000	T	Final &E (V)
SCANRATE	QUANT	4.99999E+001	&Scan Rate (mV/s)
STEPSIZE	QUANT	1.00000E+001	St&ep Size (mV)
CYCLES	IQUANT	4	C&ycles (#)
IMODE	SELECTOR	0	I/E Range &Mode
IRANGE	QUANT	1.00000E-005	&Max Current (mA)
AREA	QUANT	1.00000E+000	Electrode &Area (cm^2)
ELECTRODETYPE	SELECTOR	0	Electrode Type
STRIPPING	TOGGLE	F	Used for Stripping
POLARITY	TOGGLE	F	Signal Polarity
CONDIT	TWOPARAM	F	1.50000E+001	0.00000E+000	Conditionin&g	Time(s)	E(V)
DELAY	TWOPARAM	T	1.00000E+001	0.00000E+000	Init. De&lay	Time(s)	Stab.(mV/s)
EQDELAY	QUANT	1.00000E+001	Equil. &Time (s)
IRCOMP	SELECTOR	0	IRCom&p
PFCOR	QUANT	5.00000E+001	PF Corr. (ohm)
SAMPLINGMODE	SELECTOR	1	Sampling &Mode
OCVCURVE	TABLE	39
	Pt	T	Vf	Vm	Ach	Over	Temp
	#	s	V vs. Ref.	V	V	bits	deg C
	0	0.258333	-1.67884E-001	-1.67884E-001	1.96926E-004	..........a	-327.66
	1	0.516667	-1.67890E-001	-1.68208E-001	2.07326E-004	..........a	-327.66
	2	0.775	-1.67929E-001	-1.68530E-001	2.02659E-004	..........a	-327.66
	3	1.03333	-1.68038E-001	-1.68858E-001	1.93926E-004	..........a	-327.66
	4	1.29167	-1.68238E-001	-1.69186E-001	1.99792E-004	..........a	-327.66
	5	1.55	-1.68511E-001	-1.69506E-001	1.98726E-004	..........a	-327.66
	6	1.80833	-1.68824E-001	-1.69827E-001	1.98659E-004	..........a	-327.66
	7	2.06667	-1.69149E-001	-1.70111E-001	2.05059E-004	..........a	-327.66
	8	2.325	-1.69472E-001	-1.70412E-001	2.01792E-004	..........a	-327.66
	9	2.58333	-1.69785E-001	-1.70653E-001	1.93459E-004	..........a	-327.66
	10	2.84167	-1.70083E-001	-1.70911E-001	1.98126E-004	..........a	-327.66
	11	3.1	-1.70365E-001	-1.71166E-001	1.93459E-004	..........a	-327.66
	12	3.35833	-1.70633E-001	-1.71445E-001	2.02792E-004	..........a	-327.66
	13	3.61667	-1.70895E-001	-1.71716E-001	2.01126E-004	..........a	-327.66
	14	3.875	-1.71158E-001	-1.72007E-001	1.96326E-004	..........a	-327.66
	15	4.13333	-1.71427E-001	-1.72287E-001	2.09192E-004	..........a	-327.66
	16	4.39167	-1.71702E-001	-1.72569E-001	2.14259E-004	..........a	-327.66
	17	4.65	-1.71982E-001	-1.72864E-001	2.06392E-004	..........a	-327.66
	18	4.90833	-1.72266E-001	-1.73139E-001	2.01992E-004	..........a	-327.66
	19	5.16667	-1.72550E-001	-1.73419E-001	1.95992E-004	..........a	-327.66
	20	5.425	-1.72834E-001	-1.73711E-001	1.96726E-004	..........a	-327.66
	21	5.68333	-1.73118E-001	-1.74012E-001	1.98526E-004	..........a	-327.66
	22	5.94167	-1.73404E-001	-1.74302E-001	2.01059E-004	..........a	-327.66
	23	6.2	-1.73693E-001	-1.74587E-001	2.09326E-004	..........a	-327.66
	24	6.45833	-1.73985E-001	-1.74877E-001	2.09259E-004	..........a	-327.66
	25	6.71667	-1.74276E-001	-1.75166E-001	2.13392E-004	..........a	-327.66
	26	6.975	-1.74565E-001	-1.75443E-001	1.97326E-004	..........a	-327.66
	27	7.23333	-1.74853E-001	-1.75695E-001	1.98126E-004	..........a	-327.66
	28	7.49167	-1.75136E-001	-1.75990E-001	1.94792E-004	..........a	-327.66
	29	7.75	-1.75414E-001	-1.76276E-001	2.06059E-004	..........a	-327.66
	30	8.00833	-1.75690E-001	-1.76556E-001	1.98459E-004	..........a	-327.66
	31	8.26667	-1.75970E-001	-1.76845E-001	1.98326E-004	..........a	-327.66
	32	8.525	-1.76252E-001	-1.77131E-001	2.10592E-004	..........a	-327.66
	33	8.78333	-1.76536E-001	-1.77409E-001	1.95659E-004	..........a	-327.66
	34	9.04167	-1.76821E-001	-1.77692E-001	2.00992E-004	..........a	-327.66
	35	9.3	-1.77105E-001	-1.77968E-001	2.06592E-004	..........a	-327.66
	36	9.5583	-1.77387E-001	-1.78235E-001	1.98259E-004	..........a	-327.66
	37	9.8167	-1.77666E-001	-1.78498E-001	2.04126E-004	..........a	-327.66
	38	10.075	-1.77941E-001	-1.78765E-001	1.98259E-004	..........a	-327.66
EOC	QUANT	-0.177941	Open Circuit (V)
PSTATMODEL	IQUANT	7	Pstat Model
PSTATSECTION	LABEL	REF600P-43058	Pstat Section
PSTATSERIALNO	LABEL	43058	Pstat Serial Number
CTRLMODE	IQUANT	1	Control Mode
ELECTROMETER	IQUANT	0	RE=0 or CS=1
IESTAB	IQUANT	2	I/E Stability
CASPEED	IQUANT	4	Control Amp Speed
CONVENTION	IQUANT	1	Current Convention
ICHRANGE	IQUANT	2	Ich Range
ICHRANGEMODE	TOGGLE	F	Ich Auto Range
ICHOFFSETENABLE	TOGGLE	F	Ich Offset Enable
ICHOFFSET	QUANT	0	Ich Offset (V)
ICHFILTER	IQUANT	2	Ich Filter
VCHRANGE	IQUANT	2	Vch Range
VCHRANGEMODE	TOGGLE	F	Vch Auto Range
VCHOFFSETENABLE	TOGGLE	F	Vch Offset Enable
VCHOFFSET	QUANT	0	Vch Offset (V)
VCHFILTER	IQUANT	2	Vch Filter
ACHRANGE	IQUANT	2	Ach Range
ACHOFFSETENABLE	TOGGLE	F	Ach Offset Enable
ACHOFFSET	QUANT	0	Ach Offset (V)
ACHFILTER	IQUANT	1	Ach Filter
IERANGELOWERLIMIT	IQUANT	1	I/E Range Lower Limit
IERANGEMODE	TOGGLE	T	I/E AutoRange
IERANGE	IQUANT	4	I/E Range
POSFEEDENABLE	TOGGLE	F	Positive Feedback IR Comp
POSFEEDRESISTANCE	QUANT	0	Positive Feedback Resistance (ohm)
ACHSELECT	IQUANT	4	Ach Select
SENSECABLEID	IQUANT	7	Sense Cable ID
PWRCABLEID	IQUANT	7	Power Cable ID
DCCALDATE	LABEL	3/22/2024	DC Calibration Date
ACCALDATE	LABEL	3/22/2024	AC Calibration Date
THERMOSELECT	IQUANT	1	Thermo Select
FRAMEWORKVERSION	LABEL	7.8.4	Framework Version
INSTRUMENTVERSION	LABEL	4.42	Instrument Version
CURVE1	TABLE
	Pt	T	Vf	Im	Vu	Sig	Ach	IERange	Over	Temp
	#	s	V vs. Ref.	A	V	V	V	#	bits	deg C
	0	0.2	-1.77905E-001	6.34781E-009	0.00000E+000	-1.77950E-001	9.62992E-004	5	..........a	-327.66
	3	0.8	-1.47919E-001	5.34825E-008	0.00000E+000	-1.47950E-001	9.44592E-004	5	..........a	-327.66
	6	1.4	-1.17932E-001	7.93532E-008	0.00000E+000	-1.17950E-001	9.60992E-004	5	..........a	-327.66
	9	2	-8.80069E-002	9.93080E-008	0.00000E+000	-8.79500E-002	9.51192E-004	5	..........a	-327.66
	12	2.6	-5.79360E-002	1.17753E-007	0.00000E+000	-5.79500E-002	9.57492E-004	5	..........a	-327.66
	15	3.2	-2.79501E-002	1.35085E-007	0.00000E+000	-2.79500E-002	9.60192E-004	5	..........a	-327.66
	18	3.8	2.02754E-003	1.52543E-007	0.00000E+000	2.05000E-003	9.68792E-004	5	..........a	-327.66
	21	4.4	3.19907E-002	1.69416E-007	0.00000E+000	3.20500E-002	9.86792E-004	5	..........a	-327.66
	24	5	6.20472E-002	1.87930E-007	0.00000E+000	6.20500E-002	9.68592E-004	5	..........a	-327.66
	27	5.6	9.19081E-002	2.08574E-007	0.00000E+000	9.20500E-002	9.61592E-004	5	..........a	-327.66
	30	6.2	1.21965E-001	2.32346E-007	0.00000E+000	1.22050E-001	9.65292E-004	5	..........a	-327.66
	33	6.8	1.51954E-001	2.57978E-007	0.00000E+000	1.52050E-001	9.67292E-004	5	..........a	-327.66
	36	7.4	1.81973E-001	2.87175E-007	0.00000E+000	1.82050E-001	9.79492E-004	5	..........a	-327.66
	39	8	2.11926E-001	3.17206E-007	0.00000E+000	2.12050E-001	9.62592E-004	5	..........a	-327.66
	42	8.6	2.41910E-001	3.40487E-007	0.00000E+000	2.42050E-001	9.69892E-004	5	..........a	-327.66
	45	9.2	2.71866E-001	3.62393E-007	0.00000E+000	2.72050E-001	9.58892E-004	5	..........a	-327.66
	48	9.8	3.01951E-001	3.84277E-007	0.00000E+000	3.02050E-001	9.52392E-004	5	..........a	-327.66
	51	10.4	3.31865E-001	4.04533E-007	0.00000E+000	3.32050E-001	9.54792E-004	5	..........a	-327.66
	54	11	3.61846E-001	4.25038E-007	0.00000E+000	3.62050E-001	9.78492E-004	5	..........a	-327.66
	57	11.6	3.91839E-001	4.43978E-007	0.00000E+000	3.92050E-001	9.47892E-004	5	..........a	-327.66
	60	12.2	4.21853E-001	4.65077E-007	0.00000E+000	4.22050E-001	9.54092E-004	5	..........a	-327.66
	63	12.8	4.51796E-001	4.86730E-007	0.00000E+000	4.52050E-001	9.57692E-004	5	..........a	-327.66
	66	13.4	4.81780E-001	5.08290E-007	0.00000E+000	4.82050E-001	9.62192E-004	5	..........a	-327.66
	69	14	5.11742E-001	5.28529E-007	0.00000E+000	5.12050E-001	9.67692E-004	5	..........a	-327.66
	72	14.6	5.42017E-001	5.47423E-007	0.00000E+000	5.42050E-001	9.74792E-004	6	..........a	-327.66
	75	15.2	5.72064E-001	5.69899E-007	0.00000E+000	5.72050E-001	9.63092E-004	6	..........a	-327.66
	78	15.8	6.01974E-001	5.89261E-007	0.00000E+000	6.02050E-001	9.62692E-004	6	..........a	-327.66
	81	16.4	6.31935E-001	6.14597E-007	0.00000E+000	6.32050E-001	9.81492E-004	6	..........a	-327.66
	84	17	6.61954E-001	6.38252E-007	0.00000E+000	6.62050E-001	9.78892E-004	6	..........a	-327.66
	87	17.6	6.91950E-001	6.67760E-007	0.00000E+000	6.92050E-001	9.58792E-004	6	..........a	-327.66
	90	18.2	7.21967E-001	7.00418E-007	0.00000E+000	7.22050E-001	9.71492E-004	6	..........a	-327.66
	93	18.8	7.52003E-001	7.33433E-007	0.00000E+000	7.52050E-001	9.68892E-004	6	..........a	-327.66
	96	19.4	7.82075E-001	7.69580E-007	0.00000E+000	7.82050E-001	9.63392E-004	6	..........a	-327.66
	99	20	7.91966E-001	7.16307E-007	0.00000E+000	7.92050E-001	9.72492E-004	6	..........a	-327.66
	102	20.6	7.62031E-001	5.67188E-007	0.00000E+000	7.62050E-001	9.69792E-004	6	..........a	-327.66
	105	21.2	7.32003E-001	4.67789E-007	0.00000E+000	7.32050E-001	9.55392E-004	6	..........a	-327.66
	108	21.8	7.01845E-001	3.88932E-007	0.00000E+000	7.02050E-001	9.46792E-004	5	..........a	-327.66
	111	22.4	6.71826E-001	3.27696E-007	0.00000E+000	6.72050E-001	9.65992E-004	5	..........a	-327.66
	114	23	6.41862E-001	2.76499E-007	0.00000E+000	6.42050E-001	9.76192E-004	5	..........a	-327.66
	117	23.6	6.11922E-001	2.33236E-007	0.00000E+000	6.12050E-001	9.56192E-004	5	..........a	-327.66
	120	24.2	5.81967E-001	1.94843E-007	0.00000E+000	5.82050E-001	9.67492E-004	5	..........a	-327.66
	123	24.8	5.52004E-001	1.60626E-007	0.00000E+000	5.52050E-001	9.58592E-004	5	..........a	-327.66
	126	25.4	5.21977E-001	1.28564E-007	0.00000E+000	5.22050E-001	9.58192E-004	5	..........a	-327.66
	129	26	4.92011E-001	9.90612E-008	0.00000E+000	4.92050E-001	9.45192E-004	5	..........a	-327.66
	132	26.6	4.62024E-001	7.16893E-008	0.00000E+000	4.62050E-001	9.63592E-004	5	..........a	-327.66
	135	27.2	4.31954E-001	4.58705E-008	0.00000E+000	4.32050E-001	9.83392E-004	5	..........a	-327.66
	138	27.8	4.02024E-001	2.14351E-008	0.00000E+000	4.02050E-001	9.61392E-004	5	..........a	-327.66
	141	28.4	3.72142E-001	-1.71289E-009	0.00000E+000	3.72050E-001	9.57592E-004	5	..........a	-327.66
	144	29	3.42138E-001	-2.35840E-008	0.00000E+000	3.42050E-001	9.56292E-004	5	..........a	-327.66
	147	29.6	3.12099E-001	-4.42320E-008	0.00000E+000	3.12050E-001	9.68392E-004	5	..........a	-327.66
	150	30.2	2.82078E-001	-6.40605E-008	0.00000E+000	2.82050E-001	9.62792E-004	5	..........a	-327.66
	153	30.8	2.52226E-001	-8.32605E-008	0.00000E+000	2.52050E-001	9.56592E-004	5	..........a	-327.66
	156	31.4	2.22094E-001	-1.02487E-007	0.00000E+000	2.22050E-001	9.64492E-004	5	..........a	-327.66
	159	32	1.92188E-001	-1.22668E-007	0.00000E+000	1.92050E-001	9.58592E-004	5	..........a	-327.66
	162	32.6	1.62192E-001	-1.44018E-007	0.00000E+000	1.62050E-001	9.52392E-004	5	..........a	-327.66
	165	33.2	1.32288E-001	-1.66078E-007	0.00000E+000	1.32050E-001	9.57692E-004	5	..........a	-327.66
	168	33.8	1.02183E-001	-1.87354E-007	0.00000E+000	1.02050E-001	9.54692E-004	5	..........a	-327.66
	171	34.4	7.22187E-002	-2.06221E-007	0.00000E+000	7.20500E-002	9.57692E-004	5	..........a	-327.66
	174	35	4.22456E-002	-2.21150E-007	0.00000E+000	4.20500E-002	9.45492E-004	5	..........a	-327.66
	177	35.6	1.22700E-002	-2.35004E-007	0.00000E+000	1.20500E-002	9.62792E-004	5	..........a	-327.66
	180	36.2	-1.77872E-002	-2.48146E-007	0.00000E+000	-1.79500E-002	9.55092E-004	5	..........a	-327.66
	183	36.8	-4.77715E-002	-2.58975E-007	0.00000E+000	-4.79500E-002	9.63792E-004	5	..........a	-327.66
	186	37.4	-7.77672E-002	-2.68645E-007	0.00000E+000	-7.79500E-002	9.50892E-004	5	..........a	-327.66
	189	38	-1.07659E-001	-2.77026E-007	0.00000E+000	-1.07950E-001	9.69792E-004	5	..........a	-327.66
	192	38.6	-1.37768E-001	-2.88650E-007	0.00000E+000	-1.37950E-001	9.66892E-004	5	..........a	-327.66
	195	39.2	-1.67751E-001	-2.96734E-007	0.00000E+000	-1.67950E-001	9.57492E-004	5	..........a	-327.66
	198	39.8	-1.97755E-001	-3.06296E-007	0.00000E+000	-1.97950E-001	9.53492E-004	5	..........a	-327.66
	201	40.4	-2.27647E-001	-3.16284E-007	0.00000E+000	-2.27950E-001	9.58692E-004	5	..........a	-327.66
	204	41	-2.57707E-001	-3.26605E-007	0.00000E+000	-2.57950E-001	9.54492E-004	5	..........a	-327.66
	207	41.6	-2.87685E-001	-3.37254E-007	0.00000E+000	-2.87950E-001	9.67792E-004	5	..........a	-327.66
	210	42.2	-3.17745E-001	-3.46285E-007	0.00000E+000	-3.17950E-001	9.65292E-004	5	..........a	-327.66
	213	42.8	-3.47658E-001	-3.52439E-007	0.00000E+000	-3.47950E-001	9.63692E-004	5	..........a	-327.66
	216	43.4	-3.77698E-001	-3.56068E-007	0.00000E+000	-3.77950E-001	9.64792E-004	5	..........a	-327.66
	219	44	-4.07704E-001	-3.57918E-007	0.00000E+000	-4.07950E-001	9.64092E-004	5	..........a	-327.66
	222	44.6	-4.37657E-001	-3.58544E-007	0.00000E+000	-4.37950E-001	9.61192E-004	5	..........a	-327.66
	225	45.2	-4.67598E-001	-3.59337E-007	0.00000E+000	-4.67950E-001	9.76092E-004	5	..........a	-327.66
	228	45.8	-4.97674E-001	-3.60281E-007	0.00000E+000	-4.97950E-001	9.63092E-004	5	..........a	-327.66
	231	46.4	-5.27652E-001	-3.61316E-007	0.00000E+000	-5.27950E-001	9.60692E-004	5	..........a	-327.66
	234	47	-5.57670E-001	-3.63407E-007	0.00000E+000	-5.57950E-001	9.69892E-004	5	..........a	-327.66
	237	47.6	-5.87609E-001	-3.68031E-007	0.00000E+000	-5.87950E-001	9.71592E-004	5	..........a	-327.66
	238	47.8	-5.97648E-001	-3.69992E-007	0.00000E+000	-5.97950E-001	9.62692E-004	5	..........a	-327.66
CURVE2	TABLE
	Pt	T	Vf	Im	Vu	Sig	Ach	IERange	Over	Temp
	#	s	V vs. Ref.	A	V	V	V	#	bits	deg C
	239	48	-5.89739E-001	-3.19619E-007	0.00000E+000	-5.90000E-001	9.59892E-004	5	..........a	-327.66
	242	48.6	-5.59792E-001	-2.20256E-007	0.00000E+000	-5.60000E-001	9.71392E-004	5	..........a	-327.66
	245	49.2	-5.29812E-001	-1.59264E-007	0.00000E+000	-5.30000E-001	9.47692E-004	5	..........a	-327.66
	248	49.8	-4.99807E-001	-1.14586E-007	0.00000E+000	-5.00000E-001	9.65592E-004	5	..........a	-327.66
	251	50.4	-4.69830E-001	-7.90707E-008	0.00000E+000	-4.70000E-001	9.59892E-004	5	..........a	-327.66
	254	51	-4.39849E-001	-4.96477E-008	0.00000E+000	-4.40000E-001	9.69892E-004	5	..........a	-327.66
	257	51.6	-4.09873E-001	-2.42821E-008	0.00000E+000	-4.10000E-001	9.57292E-004	5	..........a	-327.66
	260	52.2	-3.79867E-001	-2.01637E-009	0.00000E+000	-3.80000E-001	9.63492E-004	5	..........a	-327.66
	263	52.8	-3.49914E-001	1.49991E-008	0.00000E+000	-3.50000E-001	9.53692E-004	5	..........a	-327.66
	266	53.4	-3.19907E-001	3.23709E-008	0.00000E+000	-3.20000E-001	9.63492E-004	5	..........a	-327.66
	269	54	-2.89942E-001	5.19428E-008	0.00000E+000	-2.90000E-001	9.65292E-004	5	..........a	-327.66
	272	54.6	-2.59889E-001	6.90537E-008	0.00000E+000	-2.60000E-001	9.62292E-004	5	..........a	-327.66
	275	55.2	-2.30002E-001	8.48388E-008	0.00000E+000	-2.30000E-001	9.64592E-004	5	..........a	-327.66
	278	55.8	-2.00015E-001	1.00438E-007	0.00000E+000	-2.00000E-001	9.76092E-004	5	..........a	-327.66
	281	56.4	-1.69957E-001	1.15421E-007	0.00000E+000	-1.70000E-001	9.58092E-004	5	..........a	-327.66
	284	57	-1.40009E-001	1.30362E-007	0.00000E+000	-1.40000E-001	9.58592E-004	5	..........a	-327.66
	287	57.6	-1.10033E-001	1.47767E-007	0.00000E+000	-1.10000E-001	9.53192E-004	5	..........a	-327.66
	290	58.2	-8.00532E-002	1.67119E-007	0.00000E+000	-8.00000E-002	9.62192E-004	5	..........a	-327.66
	293	58.8	-4.99899E-002	1.90656E-007	0.00000E+000	-5.00000E-002	9.68992E-004	5	..........a	-327.66
	296	59.4	-2.00574E-002	2.02829E-007	0.00000E+000	-2.00000E-002	9.61192E-004	5	..........a	-327.66
	299	60	9.97874E-003	2.18162E-007	0.00000E+000	1.00000E-002	9.55392E-004	5	..........a	-327.66
	302	60.6	3.99479E-002	2.35211E-007	0.00000E+000	4.00000E-002	9.62892E-004	5	..........a	-327.66
	305	61.2	6.99560E-002	2.53757E-007	0.00000E+000	7.00000E-002	9.80092E-004	5	..........a	-327.66
	308	61.8	9.99051E-002	2.74355E-007	0.00000E+000	1.00000E-001	9.58192E-004	5	..........a	-327.66
	311	62.4	1.29905E-001	2.97433E-007	0.00000E+000	1.30000E-001	9.59292E-004	5	..........a	-327.66
	314	63	1.59885E-001	3.21980E-007	0.00000E+000	1.60000E-001	9.64992E-004	5	..........a	-327.66
	317	63.6	1.89931E-001	3.47446E-007	0.00000E+000	1.90000E-001	9.56692E-004	5	..........a	-327.66
	320	64.2	2.19753E-001	3.69545E-007	0.00000E+000	2.20000E-001	9.58192E-004	5	..........a	-327.66
	323	64.8	2.49820E-001	3.83975E-007	0.00000E+000	2.50000E-001	9.59292E-004	5	..........a	-327.66
	326	65.4	2.79809E-001	4.01900E-007	0.00000E+000	2.80000E-001	9.66592E-004	5	..........a	-327.66
	329	66	3.09908E-001	4.19883E-007	0.00000E+000	3.10000E-001	9.62192E-004	5	..........a	-327.66
	332	66.6	3.39818E-001	4.34253E-007	0.00000E+000	3.40000E-001	9.49392E-004	5	..........a	-327.66
	335	67.2	3.69817E-001	4.49135E-007	0.00000E+000	3.70000E-001	9.61692E-004	5	..........a	-327.66
	338	67.8	3.99788E-001	4.61530E-007	0.00000E+000	4.00000E-001	9.67692E-004	5	..........a	-327.66
	341	68.4	4.29867E-001	4.73592E-007	0.00000E+000	4.30000E-001	9.72092E-004	5	..........a	-327.66
	344	69	4.59756E-001	4.86097E-007	0.00000E+000	4.60000E-001	9.62692E-004	5	..........a	-327.66
	347	69.6	4.89700E-001	4.98007E-007	0.00000E+000	4.90000E-001	9.70792E-004	5	..........a	-327.66
	350	70.2	5.19748E-001	5.10574E-007	0.00000E+000	5.20000E-001	9.65392E-004	5	..........a	-327.66
	353	70.8	5.49762E-001	5.22962E-007	0.00000E+000	5.50000E-001	9.63892E-004	5	..........a	-327.66
	356	71.4	5.79712E-001	5.37567E-007	0.00000E+000	5.80000E-001	9.61892E-004	5	..........a	-327.66
	359	72	6.09984E-001	5.56336E-007	0.00000E+000	6.10000E-001	9.62292E-004	6	..........a	-327.66
[...]
	952	190.6	6.59822E-001	2.64682E-007	0.00000E+000	6.60000E-001	9.53792E-004	5	..........a	-327.66
	955	191.2	6.29953E-001	2.18965E-007	0.00000E+000	6.30000E-001	9.58892E-004	5	..........a	-327.66
	958	191.8	5.99878E-001	1.81951E-007	0.00000E+000	6.00000E-001	9.80992E-004	5	..........a	-327.66
	961	192.4	5.69910E-001	1.45315E-007	0.00000E+000	5.70000E-001	9.57192E-004	5	..........a	-327.66
	964	193	5.39946E-001	1.13532E-007	0.00000E+000	5.40000E-001	9.60892E-004	5	..........a	-327.66
	967	193.6	5.09981E-001	8.46378E-008	0.00000E+000	5.10000E-001	9.72892E-004	5	..........a	-327.66
	970	194.2	4.79931E-001	5.77766E-008	0.00000E+000	4.80000E-001	9.69192E-004	5	..........a	-327.66
	973	194.8	4.49974E-001	3.26880E-008	0.00000E+000	4.50000E-001	9.48392E-004	5	..........a	-327.66
	976	195.4	4.20020E-001	8.71776E-009	0.00000E+000	4.20000E-001	9.50792E-004	5	..........a	-327.66
	979	196	3.90072E-001	-1.44893E-008	0.00000E+000	3.90000E-001	9.66092E-004	5	..........a	-327.66
	982	196.6	3.60036E-001	-3.55781E-008	0.00000E+000	3.60000E-001	9.64392E-004	5	..........a	-327.66
	985	197.2	3.30070E-001	-5.54645E-008	0.00000E+000	3.30000E-001	9.60892E-004	5	..........a	-327.66
	988	197.8	3.00141E-001	-7.44355E-008	0.00000E+000	3.00000E-001	9.63192E-004	5	..........a	-327.66
	991	198.4	2.70125E-001	-9.30110E-008	0.00000E+000	2.70000E-001	9.50792E-004	5	..........a	-327.66
	994	199	2.40105E-001	-1.11178E-007	0.00000E+000	2.40000E-001	9.61492E-004	5	..........a	-327.66
	997	199.6	2.10111E-001	-1.29940E-007	0.00000E+000	2.10000E-001	9.63192E-004	5	..........a	-327.66
	1000	200.2	1.80223E-001	-1.49917E-007	0.00000E+000	1.80000E-001	9.55492E-004	5	..........a	-327.66
	1003	200.8	1.50168E-001	-1.71146E-007	0.00000E+000	1.50000E-001	9.71692E-004	5	..........a	-327.66
	1006	201.4	1.20180E-001	-1.90616E-007	0.00000E+000	1.20000E-001	9.64092E-004	5	..........a	-327.66
	1009	202	9.01847E-002	-2.09056E-007	0.00000E+000	9.00000E-002	9.53692E-004	5	..........a	-327.66
	1012	202.6	6.02303E-002	-2.26989E-007	0.00000E+000	6.00000E-002	9.55992E-004	5	..........a	-327.66
	1015	203.2	3.01841E-002	-2.42147E-007	0.00000E+000	3.00000E-002	9.55192E-004	5	..........a	-327.66
	1018	203.8	1.93792E-004	-2.56706E-007	0.00000E+000	7.45058E-009	9.58692E-004	5	..........a	-327.66
	1021	204.4	-2.98138E-002	-2.69331E-007	0.00000E+000	-3.00000E-002	9.56692E-004	5	..........a	-327.66
	1024	205	-5.96986E-002	-2.81309E-007	0.00000E+000	-6.00000E-002	9.64392E-004	5	..........a	-327.66
	1027	205.6	-8.98100E-002	-2.92830E-007	0.00000E+000	-9.00000E-002	9.54192E-004	5	..........a	-327.66
	1030	206.2	-1.19793E-001	-3.03344E-007	0.00000E+000	-1.20000E-001	9.52392E-004	5	..........a	-327.66
	1033	206.8	-1.49803E-001	-3.14040E-007	0.00000E+000	-1.50000E-001	9.57692E-004	5	..........a	-327.66
	1036	207.4	-1.79702E-001	-3.24004E-007	0.00000E+000	-1.80000E-001	9.57792E-004	5	..........a	-327.66
	1039	208	-2.09760E-001	-3.32703E-007	0.00000E+000	-2.10000E-001	9.54192E-004	5	..........a	-327.66
	1042	208.6	-2.39712E-001	-3.38526E-007	0.00000E+000	-2.40000E-001	9.65092E-004	5	..........a	-327.66
	1045	209.2	-2.69758E-001	-3.43315E-007	0.00000E+000	-2.70000E-001	9.60092E-004	5	..........a	-327.66
	1048	209.8	-2.99699E-001	-3.48009E-007	0.00000E+000	-3.00000E-001	9.60692E-004	5	..........a	-327.66
	1051	210.4	-3.29752E-001	-3.55106E-007	0.00000E+000	-3.30000E-001	9.59992E-004	5	..........a	-327.66
	1054	211	-3.59717E-001	-3.57963E-007	0.00000E+000	-3.60000E-001	9.69592E-004	5	..........a	-327.66
	1057	211.6	-3.89734E-001	-3.59095E-007	0.00000E+000	-3.90000E-001	9.49592E-004	5	..........a	-327.66
	1060	212.2	-4.19613E-001	-3.59775E-007	0.00000E+000	-4.20000E-001	9.62892E-004	5	..........a	-327.66
	1063	212.8	-4.49743E-001	-3.60913E-007	0.00000E+000	-4.50000E-001	9.53192E-004	5	..........a	-327.66
	1066	213.4	-4.79703E-001	-3.59797E-007	0.00000E+000	-4.80000E-001	9.65992E-004	5	..........a	-327.66
	1069	214	-5.09725E-001	-3.59371E-007	0.00000E+000	-5.10000E-001	9.56292E-004	5	..........a	-327.66
	1072	214.6	-5.39647E-001	-3.59900E-007	0.00000E+000	-5.40000E-001	9.55792E-004	5	..........a	-327.66
	1075	215.2	-5.69709E-001	-3.61618E-007	0.00000E+000	-5.70000E-001	9.73292E-004	5	..........a	-327.66
	1078	215.8	-5.99678E-001	-3.65963E-007	0.00000E+000	-6.00000E-001	9.61392E-004	5	..........a	-327.66
CURVE5	TABLE
	Pt	T	Vf	Im	Vu	Sig	Ach	IERange	Over	Temp
	#	s	V vs. Ref.	A	V	V	V	#	bits	deg C
	1079	216	-5.89743E-001	-3.09655E-007	0.00000E+000	-5.90000E-001	9.47092E-004	5	..........a	-327.66
	1080	216.2	-5.79728E-001	-2.70851E-007	0.00000E+000	-5.80000E-001	9.57292E-004	5	..........a	-327.66
	1081	216.4	-5.69774E-001	-2.40091E-007	0.00000E+000	-5.70000E-001	9.52292E-004	5	..........a	-327.66
	1082	216.6	-5.59784E-001	-2.14127E-007	0.00000E+000	-5.60000E-001	9.63192E-004	5	..........a	-327.66
	1083	216.8	-5.49802E-001	-1.91671E-007	0.00000E+000	-5.50000E-001	9.41192E-004	5	..........a	-327.66
	1084	217	-5.39726E-001	-1.71865E-007	0.00000E+000	-5.40000E-001	9.60092E-004	5	..........a	-327.66
	1085	217.2	-5.29816E-001	-1.54119E-007	0.00000E+000	-5.30000E-001	9.54292E-004	5	..........a	-327.66
	1086	217.4	-5.19818E-001	-1.40061E-007	0.00000E+000	-5.20000E-001	9.62592E-004	5	..........a	-327.66
	1087	217.6	-5.09811E-001	-1.26225E-007	0.00000E+000	-5.10000E-001	9.57992E-004	5	..........a	-327.66
	1088	217.8	-4.99803E-001	-1.12570E-007	0.00000E+000	-5.00000E-001	9.45992E-004	5	..........a	-327.66
	1089	218	-4.89819E-001	-9.97645E-008	0.00000E+000	-4.90000E-001	9.49192E-004	5	..........a	-327.66
	1090	218.2	-4.79806E-001	-8.77964E-008	0.00000E+000	-4.80000E-001	9.64892E-004	5	..........a	-327.66
	1091	218.4	-4.69829E-001	-7.66702E-008	0.00000E+000	-4.70000E-001	9.54192E-004	5	..........a	-327.66
	1092	218.6	-4.59797E-001	-6.61392E-008	0.00000E+000	-4.60000E-001	9.52292E-004	5	..........a	-327.66
	1093	218.8	-4.49839E-001	-5.62589E-008	0.00000E+000	-4.50000E-001	9.52592E-004	5	..........a	-327.66
	1094	219	-4.39818E-001	-4.68476E-008	0.00000E+000	-4.40000E-001	9.58092E-004	5	..........a	-327.66
	1095	219.2	-4.29858E-001	-3.78504E-008	0.00000E+000	-4.30000E-001	9.51092E-004	5	..........a	-327.66
	1096	219.4	-4.19818E-001	-2.92327E-008	0.00000E+000	-4.20000E-001	9.51792E-004	5	..........a	-327.66
	1097	219.6	-4.09862E-001	-2.08376E-008	0.00000E+000	-4.10000E-001	9.54392E-004	5	..........a	-327.66
	1098	219.8	-3.99869E-001	-1.29639E-008	0.00000E+000	-4.00000E-001	9.66592E-004	5	..........a	-327.66
	1099	220	-3.89901E-001	-5.40917E-009	0.00000E+000	-3.90000E-001	9.62992E-004	5	..........a	-327.66
	1100	220.2	-3.79873E-001	1.87621E-009	0.00000E+000	-3.80000E-001	9.51792E-004	5	..........a	-327.66
	1101	220.4	-3.69889E-001	8.84106E-009	0.00000E+000	-3.70000E-001	9.52992E-004	5	..........a	-327.66
	1102	220.6	-3.59931E-001	1.56890E-008	0.00000E+000	-3.60000E-001	9.70692E-004	5	..........a	-327.66
	1103	220.8	-3.49907E-001	2.22955E-008	0.00000E+000	-3.50000E-001	9.51292E-004	5	..........a	-327.66
	1104	221	-3.39872E-001	2.87424E-008	0.00000E+000	-3.40000E-001	9.58592E-004	5	..........a	-327.66
	1105	221.2	-3.29932E-001	3.50423E-008	0.00000E+000	-3.30000E-001	9.69792E-004	5	..........a	-327.66
	1106	221.4	-3.19907E-001	4.11318E-008	0.00000E+000	-3.20000E-001	9.60992E-004	5	..........a	-327.66
	1107	221.6	-3.09944E-001	4.71436E-008	0.00000E+000	-3.10000E-001	9.67292E-004	5	..........a	-327.66
	1108	221.8	-2.99897E-001	5.30134E-008	0.00000E+000	-3.00000E-001	9.68092E-004	5	..........a	-327.66
	1109	222	-2.89930E-001	5.88034E-008	0.00000E+000	-2.90000E-001	9.56392E-004	5	..........a	-327.66
	1110	222.2	-2.79956E-001	6.45864E-008	0.00000E+000	-2.80000E-001	9.64792E-004	5	..........a	-327.66
	1111	222.4	-2.69918E-001	7.02960E-008	0.00000E+000	-2.70000E-001	9.60292E-004	5	..........a	-327.66
	1112	222.6	-2.59906E-001	7.61484E-008	0.00000E+000	-2.60000E-001	9.54492E-004	5	..........a	-327.66
	1113	222.8	-2.49929E-001	8.16770E-008	0.00000E+000	-2.50000E-001	9.71592E-004	5	..........a	-327.66
	1114	223	-2.39965E-001	8.69460E-008	0.00000E+000	-2.40000E-001	9.51792E-004	5	..........a	-327.66
	1115	223.2	-2.29984E-001	9.22347E-008	0.00000E+000	-2.30000E-001	9.74692E-004	5	..........a	-327.66
	1116	223.4	-2.19943E-001	9.76913E-008	0.00000E+000	-2.20000E-001	9.54092E-004	5	..........a	-327.66
	1117	223.6	-2.09952E-001	1.03115E-007	0.00000E+000	-2.10000E-001	9.63192E-004	5	..........a	-327.66
	1118	223.8	-2.00017E-001	1.08743E-007	0.00000E+000	-2.00000E-001	9.66092E-004	5	..........a	-327.66
	1119	224	-1.90077E-001	1.14201E-007	0.00000E+000	-1.90000E-001	9.55592E-004	5	..........a	-327.66
	1120	224.2	-1.80013E-001	1.19501E-007	0.00000E+000	-1.80000E-001	9.45692E-004	5	..........a	-327.66