File: example_project/raw_outputs/20240424_H_GM0016_HL03_E02_CV50K.DTA
EXPLAIN
TAG	CV
TITLE	LABEL	Cyclic Voltammetry	Test &Identifier
DATE	LABEL	4/24/2024	Date
TIME	LABEL	17:07:40	Time
NOTES	NOTES	1	&Notes...

PSTAT	PSTAT	REF600P-43058	Potentiostat
VINIT	POTEN	0.00000E+000	T	Initial &E (V)
VLIMIT1	POTEN	-6.00000E-001	F	Scan Limit &1 (V)
VLIMIT2	POTEN	8.00000E-001	F	Scan Limit &2 (V)
VFINAL	POTEN	0.00000E+000	T	Final &E (V)
SCANRATE	QUANT	4.99999E+004	&Scan Rate (mV/s)
STEPSIZE	QUANT	1.00000E+001	St&ep Size (mV)
CYCLES	IQUANT	10	C&ycles (#)
IMODE	SELECTOR	0	I/E Range &Mode
IRANGE	QUANT	1.00000E-005	&Max Current (mA)
AREA	QUANT	1.00000E+000	Electrode &Area (cm^2)
ELECTRODETYPE	SELECTOR	0	Electrode Type
STRIPPING	TOGGLE	F	Used for Stripping
POLARITY	TOGGLE	F	Signal Polarity
CONDIT	TWOPARAM	F	1.50000E+001	0.00000E+000	Conditionin&g	Time(s)	E(V)
DELAY	TWOPARAM	T	1.00000E+001	0.00000E+000	Init. De&lay	Time(s)	Stab.(mV/s)
EQDELAY	QUANT	1.00000E+001	Equil. &Time (s)
IRCOMP	SELECTOR	0	IRCom&p
PFCOR	QUANT	5.00000E+001	PF Corr. (ohm)
SAMPLINGMODE	SELECTOR	1	Sampling &Mode
OCVCURVE	TABLE	39
	Pt	T	Vf	Vm	Ach	Over	Temp
	#	s	V vs. Ref.	V	V	bits	deg C
	0	0.258333	-7.35676E-002	-7.35676E-002	2.21592E-004	..........a	-327.66
	1	0.516667	-7.35755E-002	-7.39850E-002	2.21859E-004	..........a	-327.66
	2	0.775	-7.36250E-002	-7.44041E-002	2.33526E-004	..........a	-327.66
	3	1.03333	-7.37665E-002	-7.48170E-002	2.24126E-004	..........a	-327.66
	4	1.29167	-7.40236E-002	-7.52253E-002	2.35392E-004	..........a	-327.66
	5	1.55	-7.43727E-002	-7.56366E-002	2.15059E-004	..........a	-327.66
	6	1.80833	-7.47705E-002	-7.60371E-002	2.21326E-004	..........a	-327.66
	7	2.06667	-7.51837E-002	-7.64403E-002	2.27126E-004	..........a	-327.66
	8	2.325	-7.55964E-002	-7.68418E-002	2.27726E-004	..........a	-327.66
	9	2.58333	-7.60044E-002	-7.72424E-002	2.28326E-004	..........a	-327.66
	10	2.84167	-7.64084E-002	-7.76365E-002	2.31659E-004	..........a	-327.66
	11	3.1	-7.68098E-002	-7.80441E-002	2.12126E-004	..........a	-327.66
	12	3.35833	-7.72097E-002	-7.84266E-002	2.25526E-004	..........a	-327.66
	13	3.61667	-7.76081E-002	-7.88199E-002	2.34592E-004	..........a	-327.66
	14	3.875	-7.80042E-002	-7.92100E-002	2.25459E-004	..........a	-327.66
	15	4.13333	-7.83976E-002	-7.95961E-002	2.30792E-004	..........a	-327.66
	16	4.39167	-7.87886E-002	-7.99832E-002	2.30259E-004	..........a	-327.66
	17	4.65	-7.91778E-002	-8.03633E-002	2.22326E-004	..........a	-327.66
	18	4.90833	-7.95650E-002	-8.07439E-002	2.22726E-004	..........a	-327.66
	19	5.16667	-7.99499E-002	-8.11182E-002	2.18259E-004	..........a	-327.66
	20	5.425	-8.03321E-002	-8.14928E-002	2.29126E-004	..........a	-327.66
	21	5.68333	-8.07113E-002	-8.18614E-002	2.42926E-004	..........a	-327.66
	22	5.94167	-8.10876E-002	-8.22338E-002	2.30592E-004	..........a	-327.66
	23	6.2	-8.14613E-002	-8.25961E-002	2.20926E-004	..........a	-327.66
	24	6.45833	-8.18324E-002	-8.29613E-002	2.27792E-004	..........a	-327.66
	25	6.71667	-8.22011E-002	-8.33235E-002	2.31792E-004	..........a	-327.66
	26	6.975	-8.25674E-002	-8.36822E-002	2.18459E-004	..........a	-327.66
	27	7.23333	-8.29314E-002	-8.40370E-002	2.18326E-004	..........a	-327.66
	28	7.49167	-8.32930E-002	-8.43930E-002	2.26792E-004	..........a	-327.66
	29	7.75	-8.36521E-002	-8.47475E-002	2.34392E-004	..........a	-327.66
	30	8.00833	-8.40091E-002	-8.50970E-002	2.33059E-004	..........a	-327.66
	31	8.26667	-8.43641E-002	-8.54400E-002	2.31526E-004	..........a	-327.66
	32	8.525	-8.47166E-002	-8.57780E-002	2.26592E-004	..........a	-327.66
	33	8.78333	-8.50654E-002	-8.61216E-002	2.21126E-004	..........a	-327.66
	34	9.04167	-8.54106E-002	-8.64603E-002	2.22259E-004	..........a	-327.66
	35	9.3	-8.57529E-002	-8.67940E-002	2.28926E-004	..........a	-327.66
	36	9.5583	-8.60930E-002	-8.71231E-002	2.34859E-004	..........a	-327.66
	37	9.8167	-8.64304E-002	-8.74461E-002	2.29726E-004	..........a	-327.66
	38	10.075	-8.67642E-002	-8.77705E-002	2.25059E-004	..........a	-327.66
EOC	QUANT	-0.0867642	Open Circuit (V)
PSTATMODEL	IQUANT	7	Pstat Model
PSTATSECTION	LABEL	REF600P-43058	Pstat Section
PSTATSERIALNO	LABEL	43058	Pstat Serial Number
CTRLMODE	IQUANT	1	Control Mode
ELECTROMETER	IQUANT	0	RE=0 or CS=1
IESTAB	IQUANT	2	I/E Stability
CASPEED	IQUANT	4	Control Amp Speed
CONVENTION	IQUANT	1	Current Convention
ICHRANGE	IQUANT	2	Ich Range
ICHRANGEMODE	TOGGLE	F	Ich Auto Range
ICHOFFSETENABLE	TOGGLE	F	Ich Offset Enable
ICHOFFSET	QUANT	0	Ich Offset (V)
ICHFILTER	IQUANT	1	Ich Filter
VCHRANGE	IQUANT	2	Vch Range
VCHRANGEMODE	TOGGLE	F	Vch Auto Range
VCHOFFSETENABLE	TOGGLE	F	Vch Offset Enable
VCHOFFSET	QUANT	0	Vch Offset (V)
VCHFILTER	IQUANT	1	Vch Filter
ACHRANGE	IQUANT	2	Ach Range
ACHOFFSETENABLE	TOGGLE	F	Ach Offset Enable
ACHOFFSET	QUANT	0	Ach Offset (V)
ACHFILTER	IQUANT	1	Ach Filter
IERANGELOWERLIMIT	IQUANT	1	I/E Range Lower Limit
IERANGEMODE	TOGGLE	T	I/E AutoRange
IERANGE	IQUANT	4	I/E Range
POSFEEDENABLE	TOGGLE	F	Positive Feedback IR Comp
POSFEEDRESISTANCE	QUANT	0	Positive Feedback Resistance (ohm)
ACHSELECT	IQUANT	4	Ach Select
SENSECABLEID	IQUANT	7	Sense Cable ID
PWRCABLEID	IQUANT	7	Power Cable ID
DCCALDATE	LABEL	3/22/2024	DC Calibration Date
ACCALDATE	LABEL	3/22/2024	AC Calibration Date
THERMOSELECT	IQUANT	1	Thermo Select
FRAMEWORKVERSION	LABEL	7.8.4	Framework Version
INSTRUMENTVERSION	LABEL	4.42	Instrument Version
CURVE1	TABLE
	Pt	T	Vf	Im	Vu	Sig	Ach	IERange	Over	Temp
	#	s	V vs. Ref.	A	V	V	V	#	bits	deg C
	0	0.0002	-8.67529E-002	2.05000E-007	0.00000E+000	-8.67500E-002	-4.18408E-004	8	..........a	-327.66
	2	0.0006	-1.06753E-001	-1.32506E-006	0.00000E+000	-1.06750E-001	-3.18408E-004	8	..........a	-327.66
	4	0.001	-1.26753E-001	-2.30510E-006	0.00000E+000	-1.26750E-001	8.15923E-005	8	..........a	-327.66
	6	0.0014	-1.46553E-001	-3.11513E-006	0.00000E+000	-1.46750E-001	8.15923E-005	8	..........a	-327.66
	8	0.0018	-1.66753E-001	-3.53514E-006	0.00000E+000	-1.66750E-001	-3.18408E-004	8	..........a	-327.66
	10	0.0022	-1.86753E-001	-4.00516E-006	0.00000E+000	-1.86750E-001	8.15923E-005	8	..........a	-327.66
	12	0.0026	-2.06653E-001	-4.38518E-006	0.00000E+000	-2.06750E-001	8.15923E-005	8	..........a	-327.66
	14	0.003	-2.26653E-001	-4.73519E-006	0.00000E+000	-2.26750E-001	8.15923E-005	8	..........a	-327.66
	16	0.0034	-2.46753E-001	-4.96520E-006	0.00000E+000	-2.46750E-001	8.15923E-005	8	..........a	-327.66
	18	0.0038	-2.66753E-001	-5.22521E-006	0.00000E+000	-2.66750E-001	8.15923E-005	8	..........a	-327.66
	20	0.0042	-2.86753E-001	-5.49522E-006	0.00000E+000	-2.86750E-001	8.15923E-005	8	..........a	-327.66
	22	0.0046	-3.06853E-001	-5.71523E-006	0.00000E+000	-3.06750E-001	8.15923E-005	8	..........a	-327.66
	24	0.005	-3.26753E-001	-5.92523E-006	0.00000E+000	-3.26750E-001	8.15923E-005	8	..........a	-327.66
	26	0.0054	-3.46753E-001	-6.18524E-006	0.00000E+000	-3.46750E-001	8.15923E-005	8	..........a	-327.66
	28	0.0058	-3.66753E-001	-6.41525E-006	0.00000E+000	-3.66750E-001	8.15923E-005	8	..........a	-327.66
	30	0.0062	-3.86753E-001	-6.66526E-006	0.00000E+000	-3.86750E-001	8.15923E-005	8	..........a	-327.66
	32	0.0066	-4.06753E-001	-6.84527E-006	0.00000E+000	-4.06750E-001	8.15923E-005	8	..........a	-327.66
	34	0.007	-4.26653E-001	-7.10528E-006	0.00000E+000	-4.26750E-001	8.15923E-005	8	..........a	-327.66
	36	0.0074	-4.46253E-001	-7.31529E-006	0.00000E+000	-4.46750E-001	8.15923E-005	8	..........a	-327.66
	38	0.0078	-4.66653E-001	-7.57530E-006	0.00000E+000	-4.66750E-001	-4.18408E-004	8	..........a	-327.66
	40	0.0082	-4.86653E-001	-7.78531E-006	0.00000E+000	-4.86750E-001	8.15923E-005	8	..........a	-327.66
	42	0.0086	-5.06553E-001	-8.06532E-006	0.00000E+000	-5.06750E-001	8.15923E-005	8	..........a	-327.66
	44	0.009	-5.26653E-001	-8.35533E-006	0.00000E+000	-5.26750E-001	8.15923E-005	8	..........a	-327.66
	46	0.0094	-5.46653E-001	-8.57534E-006	0.00000E+000	-5.46750E-001	8.15923E-005	8	..........a	-327.66
	48	0.0098	-5.66753E-001	-8.76534E-006	0.00000E+000	-5.66750E-001	-3.18408E-004	8	..........a	-327.66
	50	0.0102	-5.86553E-001	-9.03535E-006	0.00000E+000	-5.86750E-001	8.15923E-005	8	..........a	-327.66
	52	0.0106	-5.86703E-001	-7.47529E-006	0.00000E+000	-5.86750E-001	8.15923E-005	8	..........a	-327.66
	54	0.011	-5.66553E-001	-5.01520E-006	0.00000E+000	-5.66750E-001	8.15923E-005	8	..........a	-327.66
	56	0.0114	-5.46753E-001	-3.20513E-006	0.00000E+000	-5.46750E-001	8.15923E-005	8	..........a	-327.66
	58	0.0118	-5.26653E-001	-1.68507E-006	0.00000E+000	-5.26750E-001	8.15923E-005	8	..........a	-327.66
	60	0.0122	-5.06753E-001	-4.85027E-007	0.00000E+000	-5.06750E-001	8.15923E-005	8	..........a	-327.66
	62	0.0126	-4.86703E-001	5.95015E-007	0.00000E+000	-4.86750E-001	-2.18408E-004	8	..........a	-327.66
	64	0.013	-4.66653E-001	1.48505E-006	0.00000E+000	-4.66750E-001	8.15923E-005	8	..........a	-327.66
	66	0.0134	-4.46753E-001	2.18508E-006	0.00000E+000	-4.46750E-001	8.15923E-005	8	..........a	-327.66
	68	0.0138	-4.26753E-001	2.84510E-006	0.00000E+000	-4.26750E-001	-3.18408E-004	8	..........a	-327.66
	70	0.0142	-4.06603E-001	3.38512E-006	0.00000E+000	-4.06750E-001	8.15923E-005	8	..........a	-327.66
	72	0.0146	-3.86653E-001	3.91514E-006	0.00000E+000	-3.86750E-001	8.15923E-005	8	..........a	-327.66
	74	0.015	-3.66653E-001	4.27516E-006	0.00000E+000	-3.66750E-001	-2.18408E-004	8	..........a	-327.66
	76	0.0154	-3.46753E-001	4.63517E-006	0.00000E+000	-3.46750E-001	8.15923E-005	8	..........a	-327.66
	78	0.0158	-3.26753E-001	4.98518E-006	0.00000E+000	-3.26750E-001	8.15923E-005	8	..........a	-327.66
	80	0.0162	-3.06753E-001	5.22519E-006	0.00000E+000	-3.06750E-001	8.15923E-005	8	..........a	-327.66
	82	0.0166	-2.86653E-001	5.49520E-006	0.00000E+000	-2.86750E-001	8.15923E-005	8	..........a	-327.66
	84	0.017	-2.66953E-001	5.71521E-006	0.00000E+000	-2.66750E-001	8.15923E-005	8	..........a	-327.66
	86	0.0174	-2.46853E-001	5.92522E-006	0.00000E+000	-2.46750E-001	8.15923E-005	8	..........a	-327.66
	88	0.0178	-2.26753E-001	6.09523E-006	0.00000E+000	-2.26750E-001	-3.18408E-004	8	..........a	-327.66
	90	0.0182	-2.06803E-001	6.29523E-006	0.00000E+000	-2.06750E-001	8.15923E-005	8	..........a	-327.66
	92	0.0186	-1.86653E-001	6.46524E-006	0.00000E+000	-1.86750E-001	8.15923E-005	8	..........a	-327.66
	94	0.019	-1.66653E-001	6.61525E-006	0.00000E+000	-1.66750E-001	8.15923E-005	8	..........a	-327.66
	96	0.0194	-1.46753E-001	6.73525E-006	0.00000E+000	-1.46750E-001	8.15923E-005	8	..........a	-327.66
	98	0.0198	-1.26753E-001	6.83525E-006	0.00000E+000	-1.26750E-001	8.15923E-005	8	..........a	-327.66
	100	0.0202	-1.06753E-001	6.95526E-006	0.00000E+000	-1.06750E-001	-1.18408E-004	8	..........a	-327.66
	102	0.0206	-8.67529E-002	7.07526E-006	0.00000E+000	-8.67500E-002	8.15923E-005	8	..........a	-327.66
	104	0.021	-6.67529E-002	7.19527E-006	0.00000E+000	-6.67500E-002	8.15923E-005	8	..........a	-327.66
	106	0.0214	-4.66529E-002	7.30527E-006	0.00000E+000	-4.67500E-002	8.15923E-005	8	..........a	-327.66
	108	0.0218	-2.68529E-002	7.38527E-006	0.00000E+000	-2.67500E-002	-2.18408E-004	8	..........a	-327.66
	110	0.0222	-6.65289E-003	7.54528E-006	0.00000E+000	-6.75000E-003	-2.18408E-004	8	..........a	-327.66
	112	0.0226	1.31471E-002	7.60528E-006	0.00000E+000	1.32500E-002	8.15923E-005	8	..........a	-327.66
	114	0.023	3.33471E-002	7.77529E-006	0.00000E+000	3.32500E-002	8.15923E-005	8	..........a	-327.66
	116	0.0234	5.32471E-002	7.89529E-006	0.00000E+000	5.32500E-002	8.15923E-005	8	..........a	-327.66
	118	0.0238	7.33971E-002	8.06530E-006	0.00000E+000	7.32500E-002	8.15923E-005	8	..........a	-327.66
	120	0.0242	9.32471E-002	8.22531E-006	0.00000E+000	9.32500E-002	8.15923E-005	8	..........a	-327.66
	122	0.0246	1.13247E-001	8.43532E-006	0.00000E+000	1.13250E-001	8.15923E-005	8	..........a	-327.66
	124	0.025	1.33247E-001	8.67532E-006	0.00000E+000	1.33250E-001	8.15923E-005	8	..........a	-327.66
	126	0.0254	1.53197E-001	8.96533E-006	0.00000E+000	1.53250E-001	8.15923E-005	8	..........a	-327.66
	128	0.0258	1.73347E-001	9.27535E-006	0.00000E+000	1.73250E-001	-3.18408E-004	8	..........a	-327.66
	130	0.0262	1.93447E-001	9.57536E-006	0.00000E+000	1.93250E-001	8.15923E-005	8	..........a	-327.66
	132	0.0266	2.13347E-001	9.91537E-006	0.00000E+000	2.13250E-001	-2.18408E-004	8	..........a	-327.66
	134	0.027	2.33247E-001	1.02654E-005	0.00000E+000	2.33250E-001	8.15923E-005	8	..........a	-327.66
	136	0.0274	2.53247E-001	1.06354E-005	0.00000E+000	2.53250E-001	8.15923E-005	8	..........a	-327.66
	138	0.0278	2.73297E-001	1.10554E-005	0.00000E+000	2.73250E-001	8.15923E-005	8	..........a	-327.66
	140	0.0282	2.93247E-001	1.14654E-005	0.00000E+000	2.93250E-001	8.15923E-005	8	..........a	-327.66
	142	0.0286	3.13147E-001	1.19154E-005	0.00000E+000	3.13250E-001	8.15923E-005	8	..........a	-327.66
	144	0.029	3.33347E-001	1.23255E-005	0.00000E+000	3.33250E-001	8.15923E-005	8	..........a	-327.66
	146	0.0294	3.53347E-001	1.27955E-005	0.00000E+000	3.53250E-001	8.15923E-005	8	..........a	-327.66
	148	0.0298	3.72947E-001	1.32155E-005	0.00000E+000	3.73250E-001	8.15923E-005	8	..........a	-327.66
	150	0.0302	3.93247E-001	1.36955E-005	0.00000E+000	3.93250E-001	8.15923E-005	8	..........a	-327.66
	152	0.0306	4.13347E-001	1.41255E-005	0.00000E+000	4.13250E-001	8.15923E-005	8	..........a	-327.66
	154	0.031	4.33047E-001	1.46056E-005	0.00000E+000	4.33250E-001	-3.18408E-004	8	..........a	-327.66
	156	0.0314	4.53347E-001	1.50356E-005	0.00000E+000	4.53250E-001	8.15923E-005	8	..........a	-327.66
	158	0.0318	4.73247E-001	1.54456E-005	0.00000E+000	4.73250E-001	-3.18408E-004	8	..........a	-327.66
	160	0.0322	4.93447E-001	1.58556E-005	0.00000E+000	4.93250E-001	8.15923E-005	8	..........a	-327.66
	162	0.0326	5.13247E-001	1.62656E-005	0.00000E+000	5.13250E-001	8.15923E-005	8	..........a	-327.66
	164	0.033	5.33197E-001	1.66156E-005	0.00000E+000	5.33250E-001	8.15923E-005	8	..........a	-327.66
	166	0.0334	5.53247E-001	1.70856E-005	0.00000E+000	5.53250E-001	8.15923E-005	8	..........a	-327.66
	168	0.0338	5.73247E-001	1.74657E-005	0.00000E+000	5.73250E-001	8.15923E-005	8	..........a	-327.66
	170	0.0342	5.93197E-001	1.77657E-005	0.00000E+000	5.93250E-001	8.15923E-005	8	..........a	-327.66
	172	0.0346	6.13147E-001	1.80957E-005	0.00000E+000	6.13250E-001	8.15923E-005	8	..........a	-327.66
	174	0.035	6.33347E-001	1.83957E-005	0.00000E+000	6.33250E-001	8.15923E-005	8	..........a	-327.66
	176	0.0354	6.53247E-001	1.85557E-005	0.00000E+000	6.53250E-001	8.15923E-005	8	..........a	-327.66
	178	0.0358	6.73247E-001	1.87657E-005	0.00000E+000	6.73250E-001	8.15923E-005	8	..........a	-327.66
	180	0.0362	6.93147E-001	1.89557E-005	0.00000E+000	6.93250E-001	8.15923E-005	8	..........a	-327.66
	182	0.0366	7.13347E-001	1.90557E-005	0.00000E+000	7.13250E-001	8.15923E-005	8	..........a	-327.66
	184	0.037	7.33047E-001	1.91157E-005	0.00000E+000	7.33250E-001	8.15923E-005	8	..........a	-327.66
	186	0.0374	7.53147E-001	1.92057E-005	0.00000E+000	7.53250E-001	8.15923E-005	8	..........a	-327.66
	188	0.0378	7.73147E-001	1.91957E-005	0.00000E+000	7.73250E-001	8.15923E-005	8	..........a	-327.66
	190	0.0382	7.93247E-001	1.91957E-005	0.00000E+000	7.93250E-001	8.15923E-005	8	..........a	-327.66
	191	0.0384	8.03247E-001	1.91857E-005	0.00000E+000	8.03250E-001	8.15923E-005	8	..........a	-327.66
CURVE2	TABLE
	Pt	T	Vf	Im	Vu	Sig	Ach	IERange	Over	Temp
	#	s	V vs. Ref.	A	V	V	V	#	bits	deg C
	192	0.0386	7.89947E-001	1.66056E-005	0.00000E+000	7.90000E-001	8.15923E-005	8	..........a	-327.66
	195	0.0392	7.60047E-001	1.20355E-005	0.00000E+000	7.60000E-001	8.15923E-005	8	..........a	-327.66
	198	0.0398	7.29847E-001	8.54532E-006	0.00000E+000	7.30000E-001	8.15923E-005	8	..........a	-327.66
	201	0.0404	7.00047E-001	5.77521E-006	0.00000E+000	7.00000E-001	8.15923E-005	8	..........a	-327.66
	204	0.041	6.69947E-001	3.47512E-006	0.00000E+000	6.70000E-001	8.15923E-005	8	..........a	-327.66
	207	0.0416	6.40047E-001	1.60505E-006	0.00000E+000	6.40000E-001	-3.18408E-004	8	..........a	-327.66
	210	0.0422	6.10047E-001	-5.50101E-008	0.00000E+000	6.10000E-001	8.15923E-005	8	..........a	-327.66
	213	0.0428	5.80147E-001	-1.35506E-006	0.00000E+000	5.80000E-001	8.15923E-005	8	..........a	-327.66
	216	0.0434	5.50047E-001	-2.51510E-006	0.00000E+000	5.50000E-001	8.15923E-005	8	..........a	-327.66
	219	0.044	5.19947E-001	-3.53514E-006	0.00000E+000	5.20000E-001	-3.18408E-004	8	..........a	-327.66
	222	0.0446	4.90047E-001	-4.53518E-006	0.00000E+000	4.90000E-001	-1.18408E-004	8	..........a	-327.66
	225	0.0452	4.60247E-001	-5.41522E-006	0.00000E+000	4.60000E-001	8.15923E-005	8	..........a	-327.66
	228	0.0458	4.30047E-001	-6.28525E-006	0.00000E+000	4.30000E-001	8.15923E-005	8	..........a	-327.66
	231	0.0464	4.00047E-001	-7.12528E-006	0.00000E+000	4.00000E-001	8.15923E-005	8	..........a	-327.66
	234	0.047	3.69947E-001	-7.92531E-006	0.00000E+000	3.70000E-001	-2.18408E-004	8	..........a	-327.66
	237	0.0476	3.39947E-001	-8.68534E-006	0.00000E+000	3.40000E-001	8.15923E-005	8	..........a	-327.66
	240	0.0482	3.09947E-001	-9.51537E-006	0.00000E+000	3.10000E-001	8.15923E-005	8	..........a	-327.66
	243	0.0488	2.80047E-001	-1.02954E-005	0.00000E+000	2.80000E-001	8.15923E-005	8	..........a	-327.66
	246	0.0494	2.49947E-001	-1.10654E-005	0.00000E+000	2.50000E-001	8.15923E-005	8	..........a	-327.66
	249	0.05	2.19847E-001	-1.16855E-005	0.00000E+000	2.20000E-001	-3.18408E-004	8	..........a	-327.66
	252	0.0506	1.90147E-001	-1.23155E-005	0.00000E+000	1.90000E-001	8.15923E-005	8	..........a	-327.66
	255	0.0512	1.59947E-001	-1.29055E-005	0.00000E+000	1.60000E-001	8.15923E-005	8	..........a	-327.66
[...]
	2716	0.5434	7.50047E-001	9.75537E-006	0.00000E+000	7.50000E-001	8.15923E-005	8	..........a	-327.66
	2717	0.5436	7.39947E-001	8.58532E-006	0.00000E+000	7.40000E-001	8.15923E-005	8	..........a	-327.66
	2718	0.5438	7.29697E-001	7.49528E-006	0.00000E+000	7.30000E-001	8.15923E-005	8	..........a	-327.66
	2719	0.544	7.19947E-001	6.56524E-006	0.00000E+000	7.20000E-001	8.15923E-005	8	..........a	-327.66
	2720	0.5442	7.09847E-001	5.64521E-006	0.00000E+000	7.10000E-001	8.15923E-005	8	..........a	-327.66
	2721	0.5444	6.99947E-001	4.76517E-006	0.00000E+000	7.00000E-001	8.15923E-005	8	..........a	-327.66
	2722	0.5446	6.89847E-001	4.04515E-006	0.00000E+000	6.90000E-001	8.15923E-005	8	..........a	-327.66
	2723	0.5448	6.80047E-001	3.28512E-006	0.00000E+000	6.80000E-001	8.15923E-005	8	..........a	-327.66
	2724	0.545	6.69747E-001	2.56509E-006	0.00000E+000	6.70000E-001	8.15923E-005	8	..........a	-327.66
	2725	0.5452	6.60247E-001	1.95507E-006	0.00000E+000	6.60000E-001	8.15923E-005	8	..........a	-327.66
	2726	0.5454	6.49947E-001	1.33504E-006	0.00000E+000	6.50000E-001	8.15923E-005	8	..........a	-327.66
	2727	0.5456	6.40047E-001	7.45021E-007	0.00000E+000	6.40000E-001	8.15923E-005	8	..........a	-327.66
	2728	0.5458	6.29947E-001	2.65002E-007	0.00000E+000	6.30000E-001	8.15923E-005	8	..........a	-327.66
	2729	0.546	6.19947E-001	-3.35021E-007	0.00000E+000	6.20000E-001	8.15923E-005	8	..........a	-327.66
	2730	0.5462	6.10047E-001	-7.25036E-007	0.00000E+000	6.10000E-001	8.15923E-005	8	..........a	-327.66
	2731	0.5464	5.99947E-001	-1.20505E-006	0.00000E+000	6.00000E-001	8.15923E-005	8	..........a	-327.66
	2732	0.5466	5.89947E-001	-1.59507E-006	0.00000E+000	5.90000E-001	8.15923E-005	8	..........a	-327.66
	2733	0.5468	5.79847E-001	-2.03509E-006	0.00000E+000	5.80000E-001	8.15923E-005	8	..........a	-327.66
	2734	0.547	5.69947E-001	-2.45510E-006	0.00000E+000	5.70000E-001	8.15923E-005	8	..........a	-327.66
	2735	0.5472	5.60047E-001	-2.85512E-006	0.00000E+000	5.60000E-001	8.15923E-005	8	..........a	-327.66
	2736	0.5474	5.49947E-001	-3.17513E-006	0.00000E+000	5.50000E-001	8.15923E-005	8	..........a	-327.66
	2737	0.5476	5.39947E-001	-3.47514E-006	0.00000E+000	5.40000E-001	8.15923E-005	8	..........a	-327.66
	2738	0.5478	5.29997E-001	-3.79515E-006	0.00000E+000	5.30000E-001	8.15923E-005	8	..........a	-327.66
	2739	0.548	5.20047E-001	-4.14517E-006	0.00000E+000	5.20000E-001	8.15923E-005	8	..........a	-327.66
	2740	0.5482	5.10047E-001	-4.46518E-006	0.00000E+000	5.10000E-001	8.15923E-005	8	..........a	-327.66
	2741	0.5484	4.99847E-001	-4.74519E-006	0.00000E+000	5.00000E-001	-4.18408E-004	8	..........a	-327.66
	2742	0.5486	4.89947E-001	-5.01520E-006	0.00000E+000	4.90000E-001	8.15923E-005	8	..........a	-327.66
	2743	0.5488	4.80047E-001	-5.27521E-006	0.00000E+000	4.80000E-001	8.15923E-005	8	..........a	-327.66
	2744	0.549	4.70047E-001	-5.55522E-006	0.00000E+000	4.70000E-001	8.15923E-005	8	..........a	-327.66
	2745	0.5492	4.60047E-001	-5.87523E-006	0.00000E+000	4.60000E-001	8.15923E-005	8	..........a	-327.66
	2746	0.5494	4.49947E-001	-6.15524E-006	0.00000E+000	4.50000E-001	8.15923E-005	8	..........a	-327.66
	2747	0.5496	4.40047E-001	-6.41525E-006	0.00000E+000	4.40000E-001	8.15923E-005	8	..........a	-327.66
	2748	0.5498	4.30147E-001	-6.68526E-006	0.00000E+000	4.30000E-001	8.15923E-005	8	..........a	-327.66
	2749	0.55	4.19847E-001	-6.92527E-006	0.00000E+000	4.20000E-001	-3.18408E-004	8	..........a	-327.66
	2750	0.5502	4.10047E-001	-7.14528E-006	0.00000E+000	4.10000E-001	8.15923E-005	8	..........a	-327.66
	2751	0.5504	4.00047E-001	-7.40529E-006	0.00000E+000	4.00000E-001	8.15923E-005	8	..........a	-327.66
	2752	0.5506	3.90047E-001	-7.71530E-006	0.00000E+000	3.90000E-001	8.15923E-005	8	..........a	-327.66
	2753	0.5508	3.80147E-001	-7.97531E-006	0.00000E+000	3.80000E-001	8.15923E-005	8	..........a	-327.66
	2754	0.551	3.70047E-001	-8.19532E-006	0.00000E+000	3.70000E-001	8.15923E-005	8	..........a	-327.66
	2755	0.5512	3.59847E-001	-8.44533E-006	0.00000E+000	3.60000E-001	8.15923E-005	8	..........a	-327.66
	2756	0.5514	3.50047E-001	-8.64534E-006	0.00000E+000	3.50000E-001	8.15923E-005	8	..........a	-327.66
	2757	0.5516	3.39947E-001	-8.97535E-006	0.00000E+000	3.40000E-001	8.15923E-005	8	..........a	-327.66
	2758	0.5518	3.30147E-001	-9.19536E-006	0.00000E+000	3.30000E-001	8.15923E-005	8	..........a	-327.66
	2759	0.552	3.20047E-001	-9.47537E-006	0.00000E+000	3.20000E-001	8.15923E-005	8	..........a	-327.66
	2760	0.5522	3.10147E-001	-9.73538E-006	0.00000E+000	3.10000E-001	8.15923E-005	8	..........a	-327.66
	2761	0.5524	3.00047E-001	-9.98539E-006	0.00000E+000	3.00000E-001	8.15923E-005	8	..........a	-327.66
	2762	0.5526	2.90047E-001	-1.02454E-005	0.00000E+000	2.90000E-001	8.15923E-005	8	..........a	-327.66
	2763	0.5528	2.79897E-001	-1.04854E-005	0.00000E+000	2.80000E-001	8.15923E-005	8	..........a	-327.66
	2764	0.553	2.70047E-001	-1.06954E-005	0.00000E+000	2.70000E-001	8.15923E-005	8	..........a	-327.66
	2765	0.5532	2.60147E-001	-1.09954E-005	0.00000E+000	2.60000E-001	8.15923E-005	8	..........a	-327.66
	2766	0.5534	2.49947E-001	-1.12354E-005	0.00000E+000	2.50000E-001	-2.18408E-004	8	..........a	-327.66
	2767	0.5536	2.40047E-001	-1.14654E-005	0.00000E+000	2.40000E-001	8.15923E-005	8	..........a	-327.66
	2768	0.5538	2.30047E-001	-1.17355E-005	0.00000E+000	2.30000E-001	8.15923E-005	8	..........a	-327.66
	2769	0.554	2.20047E-001	-1.19355E-005	0.00000E+000	2.20000E-001	8.15923E-005	8	..........a	-327.66
	2770	0.5542	2.09947E-001	-1.22055E-005	0.00000E+000	2.10000E-001	8.15923E-005	8	..........a	-327.66
	2771	0.5544	2.00047E-001	-1.24055E-005	0.00000E+000	2.00000E-001	8.15923E-005	8	..........a	-327.66
	2772	0.5546	1.89947E-001	-1.26355E-005	0.00000E+000	1.90000E-001	8.15923E-005	8	..........a	-327.66
	2773	0.5548	1.80047E-001	-1.28355E-005	0.00000E+000	1.80000E-001	8.15923E-005	8	..........a	-327.66
	2774	0.555	1.70047E-001	-1.30455E-005	0.00000E+000	1.70000E-001	8.15923E-005	8	..........a	-327.66
	2775	0.5552	1.59947E-001	-1.32055E-005	0.00000E+000	1.60000E-001	8.15923E-005	8	..........a	-327.66
	2776	0.5554	1.50047E-001	-1.33555E-005	0.00000E+000	1.50000E-001	8.15923E-005	8	..........a	-327.66
	2777	0.5556	1.40147E-001	-1.35155E-005	0.00000E+000	1.40000E-001	8.15923E-005	8	..........a	-327.66
	2778	0.5558	1.30047E-001	-1.36755E-005	0.00000E+000	1.30000E-001	8.15923E-005	8	..........a	-327.66
	2779	0.556	1.20197E-001	-1.38355E-005	0.00000E+000	1.20000E-001	8.15923E-005	8	..........a	-327.66
	2780	0.5562	1.10047E-001	-1.38855E-005	0.00000E+000	1.10000E-001	8.15923E-005	8	..........a	-327.66
	2781	0.5564	1.00147E-001	-1.40855E-005	0.00000E+000	1.00000E-001	8.15923E-005	8	..........a	-327.66
	2782	0.5566	9.00471E-002	-1.42356E-005	0.00000E+000	9.00000E-002	8.15923E-005	8	..........a	-327.66
	2783	0.5568	7.99471E-002	-1.43356E-005	0.00000E+000	8.00000E-002	8.15923E-005	8	..........a	-327.66
	2784	0.557	7.00471E-002	-1.44556E-005	0.00000E+000	7.00000E-002	8.15923E-005	8	..........a	-327.66
	2785	0.5572	6.01471E-002	-1.45156E-005	0.00000E+000	6.00000E-002	8.15923E-005	8	..........a	-327.66
	2786	0.5574	4.99471E-002	-1.45956E-005	0.00000E+000	5.00000E-002	-2.18408E-004	8	..........a	-327.66
	2787	0.5576	3.99471E-002	-1.47756E-005	0.00000E+000	4.00000E-002	-3.18408E-004	8	..........a	-327.66
	2788	0.5578	3.00471E-002	-1.47756E-005	0.00000E+000	3.00000E-002	8.15923E-005	8	..........a	-327.66
	2789	0.558	2.01471E-002	-1.48356E-005	0.00000E+000	2.00000E-002	8.15923E-005	8	..........a	-327.66
	2790	0.5582	1.00471E-002	-1.48856E-005	0.00000E+000	1.00000E-002	-2.18408E-004	8	..........a	-327.66
	2791	0.5584	2.47114E-004	-1.49456E-005	0.00000E+000	7.45058E-009	8.15923E-005	8	..........a	-327.66
	2792	0.5586	-9.95289E-003	-1.49956E-005	0.00000E+000	-1.00000E-002	8.15923E-005	8	..........a	-327.66
	2793	0.5588	-1.99529E-002	-1.49956E-005	0.00000E+000	-2.00000E-002	-3.18408E-004	8	..........a	-327.66
	2794	0.559	-2.99529E-002	-1.50456E-005	0.00000E+000	-3.00000E-002	-3.18408E-004	8	..........a	-327.66
	2795	0.5592	-4.00529E-002	-1.50056E-005	0.00000E+000	-4.00000E-002	8.15923E-005	8	..........a	-327.66
	2796	0.5594	-4.97529E-002	-1.50756E-005	0.00000E+000	-5.00000E-002	8.15923E-005	8	..........a	-327.66
	2797	0.5596	-5.97529E-002	-1.50756E-005	0.00000E+000	-6.00000E-002	8.15923E-005	8	..........a	-327.66
	2798	0.5598	-7.00529E-002	-1.50756E-005	0.00000E+000	-7.00000E-002	8.15923E-005	8	..........a	-327.66
	2799	0.56	-7.99529E-002	-1.50056E-005	0.00000E+000	-8.00000E-002	8.15923E-005	8	..........a	-327.66
	2800	0.5602	-8.99529E-002	-1.49956E-005	0.00000E+000	-9.00000E-002	8.15923E-005	8	..........a	-327.66