File: example_project/raw_outputs/20240321_ZJ_GM0016_HL03_E09_CV50k.DTA
EXPLAIN
TAG	CV
TITLE	LABEL	Cyclic Voltammetry	Test &Identifier
DATE	LABEL	3/21/2024	Date
TIME	LABEL	18:32:06	Time
NOTES	NOTES	1	&Notes...

PSTAT	PSTAT	REF600P-43058	Potentiostat
VINIT	POTEN	0.00000E+000	T	Initial &E (V)
VLIMIT1	POTEN	-6.00000E-001	F	Scan Limit &1 (V)
VLIMIT2	POTEN	8.00000E-001	F	Scan Limit &2 (V)
VFINAL	POTEN	0.00000E+000	T	Final &E (V)
SCANRATE	QUANT	4.99999E+004	&Scan Rate (mV/s)
STEPSIZE	QUANT	1.00000E+001	St&ep Size (mV)
CYCLES	IQUANT	10	C&ycles (#)
IMODE	SELECTOR	1	I/E Range &Mode
IRANGE	QUANT	1.00000E-005	&Max Current (mA)
AREA	QUANT	1.00000E+000	Electrode &Area (cm^2)
ELECTRODETYPE	SELECTOR	0	Electrode Type
STRIPPING	TOGGLE	F	Used for Stripping
POLARITY	TOGGLE	F	Signal Polarity
CONDIT	TWOPARAM	F	1.50000E+001	0.00000E+000	Conditionin&g	Time(s)	E(V)
DELAY	TWOPARAM	T	1.00000E+001	0.00000E+000	Init. De&lay	Time(s)	Stab.(mV/s)
EQDELAY	QUANT	1.00000E+001	Equil. &Time (s)
IRCOMP	SELECTOR	0	IRCom&p
PFCOR	QUANT	5.00000E+001	PF Corr. (ohm)
SAMPLINGMODE	SELECTOR	1	Sampling &Mode
OCVCURVE	TABLE	39
	Pt	T	Vf	Vm	Ach	Over	Temp
	#	s	V vs. Ref.	V	V	bits	deg C
	0	0.258333	3.44665E-001	3.44665E-001	2.52222E-004	..........a	-327.66
	1	0.516667	3.44669E-001	3.44878E-001	2.76889E-004	..........a	-327.66
	2	0.775	3.44694E-001	3.45036E-001	2.52956E-004	..........a	-327.66
	3	1.03333	3.44759E-001	3.45215E-001	2.45689E-004	..........a	-327.66
	4	1.29167	3.44875E-001	3.45435E-001	2.52356E-004	..........a	-327.66
	5	1.55	3.45032E-001	3.45628E-001	2.62356E-004	..........a	-327.66
	6	1.80833	3.45214E-001	3.45812E-001	2.62156E-004	..........a	-327.66
	7	2.06667	3.45411E-001	3.46153E-001	2.64356E-004	..........a	-327.66
	8	2.325	3.45623E-001	3.46383E-001	2.66422E-004	..........a	-327.66
	9	2.58333	3.45850E-001	3.46419E-001	2.60622E-004	..........a	-327.66
	10	2.84167	3.46076E-001	3.46553E-001	2.58956E-004	..........a	-327.66
	11	3.1	3.46270E-001	3.46724E-001	2.51156E-004	..........a	-327.66
	12	3.35833	3.46430E-001	3.46922E-001	2.52156E-004	..........a	-327.66
	13	3.61667	3.46577E-001	3.47056E-001	2.33822E-004	..........a	-327.66
	14	3.875	3.46726E-001	3.47094E-001	2.36556E-004	..........a	-327.66
	15	4.13333	3.46872E-001	3.47212E-001	2.45422E-004	..........a	-327.66
	16	4.39167	3.47005E-001	3.47647E-001	2.56889E-004	..........a	-327.66
	17	4.65	3.47153E-001	3.48046E-001	2.60956E-004	..........a	-327.66
	18	4.90833	3.47357E-001	3.48184E-001	2.41022E-004	..........a	-327.66
	19	5.16667	3.47618E-001	3.48306E-001	2.67356E-004	..........a	-327.66
	20	5.425	3.47888E-001	3.48532E-001	2.48356E-004	..........a	-327.66
	21	5.68333	3.48126E-001	3.48770E-001	2.73556E-004	..........a	-327.66
	22	5.94167	3.48335E-001	3.48949E-001	2.44689E-004	..........a	-327.66
	23	6.2	3.48534E-001	3.49127E-001	2.51822E-004	..........a	-327.66
	24	6.45833	3.48736E-001	3.49490E-001	2.47156E-004	..........a	-327.66
	25	6.71667	3.48946E-001	3.49605E-001	2.71356E-004	..........a	-327.66
	26	6.975	3.49164E-001	3.49673E-001	2.81356E-004	..........a	-327.66
	27	7.23333	3.49371E-001	3.49853E-001	2.61822E-004	..........a	-327.66
	28	7.49167	3.49549E-001	3.50008E-001	2.54156E-004	..........a	-327.66
	29	7.75	3.49705E-001	3.50266E-001	2.63022E-004	..........a	-327.66
	30	8.00833	3.49862E-001	3.50467E-001	2.61356E-004	..........a	-327.66
	31	8.26667	3.50038E-001	3.50617E-001	2.55622E-004	..........a	-327.66
	32	8.525	3.50230E-001	3.50815E-001	2.57422E-004	..........a	-327.66
	33	8.78333	3.50427E-001	3.51161E-001	2.58022E-004	..........a	-327.66
	34	9.04167	3.50631E-001	3.51251E-001	2.72489E-004	..........a	-327.66
	35	9.3	3.50842E-001	3.51378E-001	2.54289E-004	..........a	-327.66
	36	9.5583	3.51045E-001	3.51524E-001	2.60222E-004	..........a	-327.66
	37	9.8167	3.51223E-001	3.51736E-001	2.48222E-004	..........a	-327.66
	38	10.075	3.51386E-001	3.51964E-001	2.70422E-004	..........a	-327.66
EOC	QUANT	0.3513857	Open Circuit (V)
PSTATMODEL	IQUANT	7	Pstat Model
PSTATSECTION	LABEL	REF600P-43058	Pstat Section
PSTATSERIALNO	LABEL	43058	Pstat Serial Number
CTRLMODE	IQUANT	1	Control Mode
ELECTROMETER	IQUANT	0	RE=0 or CS=1
IESTAB	IQUANT	2	I/E Stability
CASPEED	IQUANT	4	Control Amp Speed
CONVENTION	IQUANT	1	Current Convention
ICHRANGE	IQUANT	2	Ich Range
ICHRANGEMODE	TOGGLE	F	Ich Auto Range
ICHOFFSETENABLE	TOGGLE	F	Ich Offset Enable
ICHOFFSET	QUANT	0	Ich Offset (V)
ICHFILTER	IQUANT	1	Ich Filter
VCHRANGE	IQUANT	2	Vch Range
VCHRANGEMODE	TOGGLE	F	Vch Auto Range
VCHOFFSETENABLE	TOGGLE	F	Vch Offset Enable
VCHOFFSET	QUANT	0	Vch Offset (V)
VCHFILTER	IQUANT	1	Vch Filter
ACHRANGE	IQUANT	2	Ach Range
ACHOFFSETENABLE	TOGGLE	F	Ach Offset Enable
ACHOFFSET	QUANT	0	Ach Offset (V)
ACHFILTER	IQUANT	1	Ach Filter
IERANGELOWERLIMIT	IQUANT	1	I/E Range Lower Limit
IERANGEMODE	TOGGLE	F	I/E AutoRange
IERANGE	IQUANT	4	I/E Range
POSFEEDENABLE	TOGGLE	F	Positive Feedback IR Comp
POSFEEDRESISTANCE	QUANT	0	Positive Feedback Resistance (ohm)
ACHSELECT	IQUANT	4	Ach Select
SENSECABLEID	IQUANT	7	Sense Cable ID
PWRCABLEID	IQUANT	7	Power Cable ID
DCCALDATE	LABEL	12/18/2023	DC Calibration Date
ACCALDATE	LABEL	12/18/2023	AC Calibration Date
THERMOSELECT	IQUANT	1	Thermo Select
FRAMEWORKVERSION	LABEL	7.8.4	Framework Version
INSTRUMENTVERSION	LABEL	4.42	Instrument Version
CURVE1	TABLE
	Pt	T	Vf	Im	Vu	Sig	Ach	IERange	Over	Temp
	#	s	V vs. Ref.	A	V	V	V	#	bits	deg C
	0	0.0002	3.51470E-001	2.07884E-011	0.00000E+000	3.51400E-001	8.00223E-005	4	..........a	-327.66
	3	0.0008	3.21170E-001	-9.42160E-011	0.00000E+000	3.21400E-001	8.00223E-005	4	..........a	-327.66
	6	0.0014	2.91270E-001	-2.23221E-010	0.00000E+000	2.91400E-001	8.00223E-005	4	..........a	-327.66
	9	0.002	2.61370E-001	-3.72227E-010	0.00000E+000	2.61400E-001	-3.19978E-004	4	..........a	-327.66
	12	0.0026	2.31470E-001	-5.28233E-010	0.00000E+000	2.31400E-001	8.00223E-005	4	..........a	-327.66
	15	0.0032	2.01370E-001	-7.03239E-010	0.00000E+000	2.01400E-001	8.00223E-005	4	..........a	-327.66
	18	0.0038	1.71470E-001	-8.86246E-010	0.00000E+000	1.71400E-001	8.00223E-005	4	..........a	-327.66
	21	0.0044	1.41370E-001	-1.08625E-009	0.00000E+000	1.41400E-001	8.00223E-005	4	..........a	-327.66
	24	0.005	1.11470E-001	-1.31426E-009	0.00000E+000	1.11400E-001	8.00223E-005	4	..........a	-327.66
	27	0.0056	8.14695E-002	-1.54327E-009	0.00000E+000	8.14000E-002	8.00223E-005	4	..........a	-327.66
	30	0.0062	5.13695E-002	-1.80228E-009	0.00000E+000	5.14000E-002	8.00223E-005	4	..........a	-327.66
	33	0.0068	2.15695E-002	-2.08629E-009	0.00000E+000	2.14000E-002	8.00223E-005	4	..........a	-327.66
	36	0.0074	-8.43048E-003	-2.38430E-009	0.00000E+000	-8.60000E-003	8.00223E-005	4	..........a	-327.66
	39	0.008	-3.84305E-002	-2.71532E-009	0.00000E+000	-3.86000E-002	8.00223E-005	4	..........a	-327.66
	42	0.0086	-6.87305E-002	-3.04833E-009	0.00000E+000	-6.86000E-002	8.00223E-005	4	..........a	-327.66
	45	0.0092	-9.85305E-002	-3.42034E-009	0.00000E+000	-9.86000E-002	8.00223E-005	4	..........a	-327.66
	48	0.0098	-1.28530E-001	-3.79936E-009	0.00000E+000	-1.28600E-001	8.00223E-005	4	..........a	-327.66
	51	0.0104	-1.58530E-001	-4.18737E-009	0.00000E+000	-1.58600E-001	8.00223E-005	4	..........a	-327.66
	54	0.011	-1.88530E-001	-4.59239E-009	0.00000E+000	-1.88600E-001	8.00223E-005	4	..........a	-327.66
	57	0.0116	-2.18330E-001	-5.00240E-009	0.00000E+000	-2.18600E-001	8.00223E-005	4	..........a	-327.66
	60	0.0122	-2.48530E-001	-5.41442E-009	0.00000E+000	-2.48600E-001	8.00223E-005	4	..........a	-327.66
	63	0.0128	-2.78330E-001	-5.83444E-009	0.00000E+000	-2.78600E-001	8.00223E-005	4	..........a	-327.66
	66	0.0134	-3.08530E-001	-6.25245E-009	0.00000E+000	-3.08600E-001	8.00223E-005	4	..........a	-327.66
	69	0.014	-3.38330E-001	-6.68247E-009	0.00000E+000	-3.38600E-001	8.00223E-005	4	..........a	-327.66
	72	0.0146	-3.68480E-001	-7.10449E-009	0.00000E+000	-3.68600E-001	8.00223E-005	4	..........a	-327.66
	75	0.0152	-3.98430E-001	-7.53150E-009	0.00000E+000	-3.98600E-001	8.00223E-005	4	..........a	-327.66
	78	0.0158	-4.28530E-001	-7.97052E-009	0.00000E+000	-4.28600E-001	8.00223E-005	4	..........a	-327.66
	81	0.0164	-4.58530E-001	-8.40453E-009	0.00000E+000	-4.58600E-001	8.00223E-005	4	..........a	-327.66
	84	0.017	-4.88430E-001	-8.84355E-009	0.00000E+000	-4.88600E-001	8.00223E-005	4	..........a	-327.66
	87	0.0176	-5.18530E-001	-9.29057E-009	0.00000E+000	-5.18600E-001	8.00223E-005	4	..........a	-327.66
	90	0.0182	-5.48630E-001	-9.75059E-009	0.00000E+000	-5.48600E-001	8.00223E-005	4	..........a	-327.66
	93	0.0188	-5.78330E-001	-1.02196E-008	0.00000E+000	-5.78600E-001	8.00223E-005	4	..........a	-327.66
	96	0.0194	-5.88331E-001	-1.05906E-008	0.00000E+000	-5.88600E-001	8.00223E-005	4	..........a	-327.66
	99	0.02	-5.58430E-001	-1.06276E-008	0.00000E+000	-5.58600E-001	8.00223E-005	4	..........a	-327.66
	102	0.0206	-5.28430E-001	-1.05766E-008	0.00000E+000	-5.28600E-001	8.00223E-005	4	..........a	-327.66
	105	0.0212	-4.98430E-001	-1.04736E-008	0.00000E+000	-4.98600E-001	8.00223E-005	4	..........a	-327.66
	108	0.0218	-4.68430E-001	-1.03406E-008	0.00000E+000	-4.68600E-001	8.00223E-005	4	..........a	-327.66
	111	0.0224	-4.38530E-001	-1.01826E-008	0.00000E+000	-4.38600E-001	8.00223E-005	4	..........a	-327.66
	114	0.023	-4.08430E-001	-1.00066E-008	0.00000E+000	-4.08600E-001	8.00223E-005	4	..........a	-327.66
	117	0.0236	-3.78430E-001	-9.81959E-009	0.00000E+000	-3.78600E-001	8.00223E-005	4	..........a	-327.66
	120	0.0242	-3.48530E-001	-9.61858E-009	0.00000E+000	-3.48600E-001	8.00223E-005	4	..........a	-327.66
	123	0.0248	-3.18430E-001	-9.40557E-009	0.00000E+000	-3.18600E-001	8.00223E-005	4	..........a	-327.66
	126	0.0254	-2.88380E-001	-9.18957E-009	0.00000E+000	-2.88600E-001	8.00223E-005	4	..........a	-327.66
	129	0.026	-2.58330E-001	-8.96656E-009	0.00000E+000	-2.58600E-001	8.00223E-005	4	..........a	-327.66
	132	0.0266	-2.28530E-001	-8.73855E-009	0.00000E+000	-2.28600E-001	8.00223E-005	4	..........a	-327.66
	135	0.0272	-1.98630E-001	-8.50654E-009	0.00000E+000	-1.98600E-001	8.00223E-005	4	..........a	-327.66
	138	0.0278	-1.68580E-001	-8.26653E-009	0.00000E+000	-1.68600E-001	8.00223E-005	4	..........a	-327.66
	141	0.0284	-1.38530E-001	-8.02452E-009	0.00000E+000	-1.38600E-001	8.00223E-005	4	..........a	-327.66
	144	0.029	-1.08630E-001	-7.77151E-009	0.00000E+000	-1.08600E-001	8.00223E-005	4	..........a	-327.66
	147	0.0296	-7.86305E-002	-7.51550E-009	0.00000E+000	-7.86000E-002	8.00223E-005	4	..........a	-327.66
	150	0.0302	-4.84305E-002	-7.26249E-009	0.00000E+000	-4.86000E-002	8.00223E-005	4	..........a	-327.66
	153	0.0308	-1.84305E-002	-6.99848E-009	0.00000E+000	-1.86000E-002	8.00223E-005	4	..........a	-327.66
	156	0.0314	1.15695E-002	-6.74047E-009	0.00000E+000	1.14000E-002	8.00223E-005	4	..........a	-327.66
	159	0.032	4.12695E-002	-6.46346E-009	0.00000E+000	4.14000E-002	8.00223E-005	4	..........a	-327.66
	162	0.0326	7.14695E-002	-6.19245E-009	0.00000E+000	7.14000E-002	-2.19978E-004	4	..........a	-327.66
	165	0.0332	1.01570E-001	-5.91444E-009	0.00000E+000	1.01400E-001	8.00223E-005	4	..........a	-327.66
	168	0.0338	1.31370E-001	-5.62443E-009	0.00000E+000	1.31400E-001	8.00223E-005	4	..........a	-327.66
	171	0.0344	1.61570E-001	-5.33542E-009	0.00000E+000	1.61400E-001	8.00223E-005	4	..........a	-327.66
	174	0.035	1.91470E-001	-5.03841E-009	0.00000E+000	1.91400E-001	-4.19978E-004	4	..........a	-327.66
	177	0.0356	2.21270E-001	-4.73639E-009	0.00000E+000	2.21400E-001	8.00223E-005	4	..........a	-327.66
	180	0.0362	2.51570E-001	-4.42638E-009	0.00000E+000	2.51400E-001	8.00223E-005	4	..........a	-327.66
	183	0.0368	2.81270E-001	-4.10037E-009	0.00000E+000	2.81400E-001	8.00223E-005	4	..........a	-327.66
	186	0.0374	3.11470E-001	-3.77436E-009	0.00000E+000	3.11400E-001	8.00223E-005	4	..........a	-327.66
	189	0.038	3.41470E-001	-3.43334E-009	0.00000E+000	3.41400E-001	8.00223E-005	4	..........a	-327.66
	192	0.0386	3.71370E-001	-3.09833E-009	0.00000E+000	3.71400E-001	8.00223E-005	4	..........a	-327.66
	195	0.0392	4.01270E-001	-2.75232E-009	0.00000E+000	4.01400E-001	8.00223E-005	4	..........a	-327.66
	198	0.0398	4.31570E-001	-2.39130E-009	0.00000E+000	4.31400E-001	8.00223E-005	4	..........a	-327.66
	201	0.0404	4.61270E-001	-2.01629E-009	0.00000E+000	4.61400E-001	8.00223E-005	4	..........a	-327.66
	204	0.041	4.91470E-001	-1.64028E-009	0.00000E+000	4.91400E-001	8.00223E-005	4	..........a	-327.66
	207	0.0416	5.21369E-001	-1.24726E-009	0.00000E+000	5.21400E-001	8.00223E-005	4	..........a	-327.66
	210	0.0422	5.51369E-001	-8.40245E-010	0.00000E+000	5.51400E-001	8.00223E-005	4	..........a	-327.66
	213	0.0428	5.81369E-001	-4.12228E-010	0.00000E+000	5.81400E-001	8.00223E-005	4	..........a	-327.66
	216	0.0434	6.11369E-001	3.67890E-011	0.00000E+000	6.11400E-001	8.00223E-005	4	..........a	-327.66
	219	0.044	6.41369E-001	5.03807E-010	0.00000E+000	6.41400E-001	-3.19978E-004	4	..........a	-327.66
	222	0.0446	6.71369E-001	1.00483E-009	0.00000E+000	6.71400E-001	8.00223E-005	4	..........a	-327.66
	225	0.0452	7.01270E-001	1.52185E-009	0.00000E+000	7.01400E-001	8.00223E-005	4	..........a	-327.66
	228	0.0458	7.31269E-001	2.08387E-009	0.00000E+000	7.31400E-001	8.00223E-005	4	..........a	-327.66
	231	0.0464	7.61269E-001	2.66389E-009	0.00000E+000	7.61400E-001	8.00223E-005	4	..........a	-327.66
	234	0.047	7.91469E-001	3.29191E-009	0.00000E+000	7.91400E-001	8.00223E-005	4	..........a	-327.66
	235	0.0472	8.01369E-001	3.50892E-009	0.00000E+000	8.01400E-001	8.00223E-005	4	..........a	-327.66
CURVE2	TABLE
	Pt	T	Vf	Im	Vu	Sig	Ach	IERange	Over	Temp
	#	s	V vs. Ref.	A	V	V	V	#	bits	deg C
	236	0.0474	7.89919E-001	3.60993E-009	0.00000E+000	7.90000E-001	8.00223E-005	4	..........a	-327.66
	239	0.048	7.60069E-001	3.77393E-009	0.00000E+000	7.60000E-001	8.00223E-005	4	..........a	-327.66
	242	0.0486	7.29970E-001	3.80193E-009	0.00000E+000	7.30000E-001	8.00223E-005	4	..........a	-327.66
	245	0.0492	6.99969E-001	3.76093E-009	0.00000E+000	7.00000E-001	8.00223E-005	4	..........a	-327.66
	248	0.0498	6.70069E-001	3.67593E-009	0.00000E+000	6.70000E-001	8.00223E-005	4	..........a	-327.66
	251	0.0504	6.39769E-001	3.55492E-009	0.00000E+000	6.40000E-001	8.00223E-005	4	..........a	-327.66
	254	0.051	6.09869E-001	3.41592E-009	0.00000E+000	6.10000E-001	8.00223E-005	4	..........a	-327.66
	257	0.0516	5.79870E-001	3.25591E-009	0.00000E+000	5.80000E-001	8.00223E-005	4	..........a	-327.66
	260	0.0522	5.49869E-001	3.08291E-009	0.00000E+000	5.50000E-001	8.00223E-005	4	..........a	-327.66
	263	0.0528	5.19870E-001	2.89690E-009	0.00000E+000	5.20000E-001	8.00223E-005	4	..........a	-327.66
	266	0.0534	4.90070E-001	2.69989E-009	0.00000E+000	4.90000E-001	8.00223E-005	4	..........a	-327.66
	269	0.054	4.60070E-001	2.49088E-009	0.00000E+000	4.60000E-001	8.00223E-005	4	..........a	-327.66
	272	0.0546	4.29870E-001	2.26787E-009	0.00000E+000	4.30000E-001	8.00223E-005	4	..........a	-327.66
	275	0.0552	4.00070E-001	2.04087E-009	0.00000E+000	4.00000E-001	8.00223E-005	4	..........a	-327.66
	278	0.0558	3.69970E-001	1.79886E-009	0.00000E+000	3.70000E-001	8.00223E-005	4	..........a	-327.66
	281	0.0564	3.39970E-001	1.54385E-009	0.00000E+000	3.40000E-001	8.00223E-005	4	..........a	-327.66
	284	0.057	3.09970E-001	1.27484E-009	0.00000E+000	3.10000E-001	8.00223E-005	4	..........a	-327.66
	287	0.0576	2.80070E-001	9.86826E-010	0.00000E+000	2.80000E-001	8.00223E-005	4	..........a	-327.66
	290	0.0582	2.49870E-001	6.87814E-010	0.00000E+000	2.50000E-001	-3.19978E-004	4	..........a	-327.66
	293	0.0588	2.20270E-001	3.76802E-010	0.00000E+000	2.20000E-001	8.00223E-005	4	..........a	-327.66
	296	0.0594	1.89970E-001	4.57894E-011	0.00000E+000	1.90000E-001	8.00223E-005	4	..........a	-327.66
	299	0.06	1.60070E-001	-2.94224E-010	0.00000E+000	1.60000E-001	8.00223E-005	4	..........a	-327.66
	302	0.0606	1.30070E-001	-6.58238E-010	0.00000E+000	1.30000E-001	8.00223E-005	4	..........a	-327.66
	305	0.0612	9.99695E-002	-1.02825E-009	0.00000E+000	1.00000E-001	8.00223E-005	4	..........a	-327.66
	308	0.0618	7.00695E-002	-1.40227E-009	0.00000E+000	7.00000E-002	8.00223E-005	4	..........a	-327.66
	311	0.0624	4.00695E-002	-1.79128E-009	0.00000E+000	4.00000E-002	8.00223E-005	4	..........a	-327.66
	314	0.063	9.96952E-003	-2.17730E-009	0.00000E+000	1.00000E-002	8.00223E-005	4	..........a	-327.66
	317	0.0636	-1.98305E-002	-2.55631E-009	0.00000E+000	-2.00000E-002	8.00223E-005	4	..........a	-327.66
	320	0.0642	-4.99305E-002	-2.93533E-009	0.00000E+000	-5.00000E-002	8.00223E-005	4	..........a	-327.66
	323	0.0648	-8.00805E-002	-3.31234E-009	0.00000E+000	-8.00000E-002	8.00223E-005	4	..........a	-327.66
	326	0.0654	-1.10030E-001	-3.67435E-009	0.00000E+000	-1.10000E-001	8.00223E-005	4	..........a	-327.66
	329	0.066	-1.39730E-001	-4.03437E-009	0.00000E+000	-1.40000E-001	8.00223E-005	4	..........a	-327.66
	332	0.0666	-1.69730E-001	-4.38638E-009	0.00000E+000	-1.70000E-001	8.00223E-005	4	..........a	-327.66
	335	0.0672	-2.00030E-001	-4.71639E-009	0.00000E+000	-2.00000E-001	8.00223E-005	4	..........a	-327.66
	338	0.0678	-2.29930E-001	-5.04741E-009	0.00000E+000	-2.30000E-001	8.00223E-005	4	..........a	-327.66
	341	0.0684	-2.59830E-001	-5.37142E-009	0.00000E+000	-2.60000E-001	8.00223E-005	4	..........a	-327.66
	344	0.069	-2.89930E-001	-5.69343E-009	0.00000E+000	-2.90000E-001	8.00223E-005	4	..........a	-327.66
	347	0.0696	-3.19930E-001	-6.00744E-009	0.00000E+000	-3.20000E-001	8.00223E-005	4	..........a	-327.66
	350	0.0702	-3.49730E-001	-6.32346E-009	0.00000E+000	-3.50000E-001	8.00223E-005	4	..........a	-327.66
[...]
	2638	0.5278	-3.69930E-001	-5.80644E-009	0.00000E+000	-3.70000E-001	8.00223E-005	4	..........a	-327.66
	2641	0.5284	-3.39730E-001	-5.61843E-009	0.00000E+000	-3.40000E-001	8.00223E-005	4	..........a	-327.66
	2644	0.529	-3.09930E-001	-5.42442E-009	0.00000E+000	-3.10000E-001	8.00223E-005	4	..........a	-327.66
	2647	0.5296	-2.79830E-001	-5.22441E-009	0.00000E+000	-2.80000E-001	8.00223E-005	4	..........a	-327.66
	2650	0.5302	-2.50030E-001	-5.02041E-009	0.00000E+000	-2.50000E-001	8.00223E-005	4	..........a	-327.66
	2653	0.5308	-2.19930E-001	-4.80740E-009	0.00000E+000	-2.20000E-001	8.00223E-005	4	..........a	-327.66
	2656	0.5314	-1.89930E-001	-4.58739E-009	0.00000E+000	-1.90000E-001	8.00223E-005	4	..........a	-327.66
	2659	0.532	-1.59930E-001	-4.37838E-009	0.00000E+000	-1.60000E-001	8.00223E-005	4	..........a	-327.66
	2662	0.5326	-1.30030E-001	-4.15137E-009	0.00000E+000	-1.30000E-001	8.00223E-005	4	..........a	-327.66
	2665	0.5332	-1.00030E-001	-3.91836E-009	0.00000E+000	-1.00000E-001	8.00223E-005	4	..........a	-327.66
	2668	0.5338	-6.99305E-002	-3.69135E-009	0.00000E+000	-7.00000E-002	8.00223E-005	4	..........a	-327.66
	2671	0.5344	-4.01305E-002	-3.45635E-009	0.00000E+000	-4.00000E-002	8.00223E-005	4	..........a	-327.66
	2674	0.535	-9.93048E-003	-3.21834E-009	0.00000E+000	-1.00000E-002	8.00223E-005	4	..........a	-327.66
	2677	0.5356	2.01695E-002	-2.97833E-009	0.00000E+000	2.00000E-002	8.00223E-005	4	..........a	-327.66
	2680	0.5362	5.00695E-002	-2.72532E-009	0.00000E+000	5.00000E-002	8.00223E-005	4	..........a	-327.66
	2683	0.5368	8.00695E-002	-2.47431E-009	0.00000E+000	8.00000E-002	8.00223E-005	4	..........a	-327.66
	2686	0.5374	1.10170E-001	-2.21530E-009	0.00000E+000	1.10000E-001	8.00223E-005	4	..........a	-327.66
	2689	0.538	1.40070E-001	-1.95429E-009	0.00000E+000	1.40000E-001	8.00223E-005	4	..........a	-327.66
	2692	0.5386	1.70170E-001	-1.68728E-009	0.00000E+000	1.70000E-001	8.00223E-005	4	..........a	-327.66
	2695	0.5392	2.00070E-001	-1.40627E-009	0.00000E+000	2.00000E-001	8.00223E-005	4	..........a	-327.66
	2698	0.5398	2.29970E-001	-1.12426E-009	0.00000E+000	2.30000E-001	8.00223E-005	4	..........a	-327.66
	2701	0.5404	2.59970E-001	-8.32244E-010	0.00000E+000	2.60000E-001	8.00223E-005	4	..........a	-327.66
	2704	0.541	2.90070E-001	-5.20232E-010	0.00000E+000	2.90000E-001	8.00223E-005	4	..........a	-327.66
	2707	0.5416	3.19970E-001	-2.06220E-010	0.00000E+000	3.20000E-001	8.00223E-005	4	..........a	-327.66
	2710	0.5422	3.49920E-001	1.18792E-010	0.00000E+000	3.50000E-001	8.00223E-005	4	..........a	-327.66
	2713	0.5428	3.80020E-001	4.51805E-010	0.00000E+000	3.80000E-001	8.00223E-005	4	..........a	-327.66
	2716	0.5434	4.09970E-001	7.88818E-010	0.00000E+000	4.10000E-001	8.00223E-005	4	..........a	-327.66
	2719	0.544	4.39970E-001	1.15483E-009	0.00000E+000	4.40000E-001	8.00223E-005	4	..........a	-327.66
	2722	0.5446	4.69970E-001	1.51185E-009	0.00000E+000	4.70000E-001	8.00223E-005	4	..........a	-327.66
	2725	0.5452	5.00269E-001	1.89386E-009	0.00000E+000	5.00000E-001	8.00223E-005	4	..........a	-327.66
	2728	0.5458	5.29669E-001	2.28688E-009	0.00000E+000	5.30000E-001	8.00223E-005	4	..........a	-327.66
	2731	0.5464	5.59969E-001	2.69989E-009	0.00000E+000	5.60000E-001	8.00223E-005	4	..........a	-327.66
	2734	0.547	5.90069E-001	3.12191E-009	0.00000E+000	5.90000E-001	8.00223E-005	4	..........a	-327.66
	2737	0.5476	6.19869E-001	3.57392E-009	0.00000E+000	6.20000E-001	8.00223E-005	4	..........a	-327.66
	2740	0.5482	6.49870E-001	4.04594E-009	0.00000E+000	6.50000E-001	8.00223E-005	4	..........a	-327.66
	2743	0.5488	6.80169E-001	4.54296E-009	0.00000E+000	6.80000E-001	8.00223E-005	4	..........a	-327.66
	2746	0.5494	7.09870E-001	5.06298E-009	0.00000E+000	7.10000E-001	8.00223E-005	4	..........a	-327.66
	2749	0.55	7.39869E-001	5.61800E-009	0.00000E+000	7.40000E-001	8.00223E-005	4	..........a	-327.66
	2752	0.5506	7.69969E-001	6.20903E-009	0.00000E+000	7.70000E-001	8.00223E-005	4	..........a	-327.66
	2755	0.5512	7.99969E-001	6.83405E-009	0.00000E+000	8.00000E-001	8.00223E-005	4	..........a	-327.66
CURVE11	TABLE
	Pt	T	Vf	Im	Vu	Sig	Ach	IERange	Over	Temp
	#	s	V vs. Ref.	A	V	V	V	#	bits	deg C
	2756	0.5514	7.89869E-001	6.93605E-009	0.00000E+000	7.90000E-001	8.00223E-005	4	..........a	-327.66
	2757	0.5516	7.79869E-001	7.00806E-009	0.00000E+000	7.80000E-001	8.00223E-005	4	..........a	-327.66
	2758	0.5518	7.69870E-001	7.05406E-009	0.00000E+000	7.70000E-001	8.00223E-005	4	..........a	-327.66
	2759	0.552	7.59669E-001	7.08906E-009	0.00000E+000	7.60000E-001	8.00223E-005	4	..........a	-327.66
	2760	0.5522	7.49869E-001	7.10206E-009	0.00000E+000	7.50000E-001	8.00223E-005	4	..........a	-327.66
	2761	0.5524	7.40070E-001	7.11106E-009	0.00000E+000	7.40000E-001	8.00223E-005	4	..........a	-327.66
	2762	0.5526	7.29869E-001	7.10206E-009	0.00000E+000	7.30000E-001	8.00223E-005	4	..........a	-327.66
	2763	0.5528	7.19969E-001	7.09306E-009	0.00000E+000	7.20000E-001	8.00223E-005	4	..........a	-327.66
	2764	0.553	7.09870E-001	7.06806E-009	0.00000E+000	7.10000E-001	8.00223E-005	4	..........a	-327.66
	2765	0.5532	6.99969E-001	7.04106E-009	0.00000E+000	7.00000E-001	8.00223E-005	4	..........a	-327.66
	2766	0.5534	6.89869E-001	7.01606E-009	0.00000E+000	6.90000E-001	8.00223E-005	4	..........a	-327.66
	2767	0.5536	6.80169E-001	6.97606E-009	0.00000E+000	6.80000E-001	8.00223E-005	4	..........a	-327.66
	2768	0.5538	6.69869E-001	6.94205E-009	0.00000E+000	6.70000E-001	8.00223E-005	4	..........a	-327.66
	2769	0.554	6.60069E-001	6.89205E-009	0.00000E+000	6.60000E-001	8.00223E-005	4	..........a	-327.66
	2770	0.5542	6.49969E-001	6.85005E-009	0.00000E+000	6.50000E-001	8.00223E-005	4	..........a	-327.66
	2771	0.5544	6.39769E-001	6.79805E-009	0.00000E+000	6.40000E-001	8.00223E-005	4	..........a	-327.66
	2772	0.5546	6.29969E-001	6.74805E-009	0.00000E+000	6.30000E-001	8.00223E-005	4	..........a	-327.66
	2773	0.5548	6.19669E-001	6.69304E-009	0.00000E+000	6.20000E-001	8.00223E-005	4	..........a	-327.66
	2774	0.555	6.09969E-001	6.63604E-009	0.00000E+000	6.10000E-001	8.00223E-005	4	..........a	-327.66
	2775	0.5552	6.00069E-001	6.57804E-009	0.00000E+000	6.00000E-001	8.00223E-005	4	..........a	-327.66
	2776	0.5554	5.89869E-001	6.51604E-009	0.00000E+000	5.90000E-001	8.00223E-005	4	..........a	-327.66
	2777	0.5556	5.80069E-001	6.45804E-009	0.00000E+000	5.80000E-001	8.00223E-005	4	..........a	-327.66
	2778	0.5558	5.69869E-001	6.38803E-009	0.00000E+000	5.70000E-001	8.00223E-005	4	..........a	-327.66
	2779	0.556	5.59669E-001	6.32503E-009	0.00000E+000	5.60000E-001	8.00223E-005	4	..........a	-327.66
	2780	0.5562	5.50070E-001	6.25103E-009	0.00000E+000	5.50000E-001	8.00223E-005	4	..........a	-327.66
	2781	0.5564	5.40069E-001	6.18603E-009	0.00000E+000	5.40000E-001	-4.19978E-004	4	..........a	-327.66
	2782	0.5566	5.29970E-001	6.11202E-009	0.00000E+000	5.30000E-001	-3.19978E-004	4	..........a	-327.66
	2783	0.5568	5.19969E-001	6.04202E-009	0.00000E+000	5.20000E-001	8.00223E-005	4	..........a	-327.66
	2784	0.557	5.09969E-001	5.96802E-009	0.00000E+000	5.10000E-001	8.00223E-005	4	..........a	-327.66
	2785	0.5572	5.00219E-001	5.89501E-009	0.00000E+000	5.00000E-001	8.00223E-005	4	..........a	-327.66
	2786	0.5574	4.90070E-001	5.82201E-009	0.00000E+000	4.90000E-001	8.00223E-005	4	..........a	-327.66
	2787	0.5576	4.80220E-001	5.73801E-009	0.00000E+000	4.80000E-001	8.00223E-005	4	..........a	-327.66
	2788	0.5578	4.69970E-001	5.66801E-009	0.00000E+000	4.70000E-001	8.00223E-005	4	..........a	-327.66
	2789	0.558	4.59870E-001	5.58300E-009	0.00000E+000	4.60000E-001	8.00223E-005	4	..........a	-327.66
	2790	0.5582	4.49970E-001	5.50000E-009	0.00000E+000	4.50000E-001	8.00223E-005	4	..........a	-327.66
	2791	0.5584	4.39870E-001	5.41600E-009	0.00000E+000	4.40000E-001	-3.19978E-004	4	..........a	-327.66
	2792	0.5586	4.30070E-001	5.33399E-009	0.00000E+000	4.30000E-001	8.00223E-005	4	..........a	-327.66
	2793	0.5588	4.19970E-001	5.24599E-009	0.00000E+000	4.20000E-001	8.00223E-005	4	..........a	-327.66
	2794	0.559	4.10070E-001	5.16099E-009	0.00000E+000	4.10000E-001	8.00223E-005	4	..........a	-327.66
	2795	0.5592	4.00270E-001	5.07198E-009	0.00000E+000	4.00000E-001	8.00223E-005	4	..........a	-327.66
	2796	0.5594	3.89870E-001	4.97998E-009	0.00000E+000	3.90000E-001	-2.19978E-004	4	..........a	-327.66
	2797	0.5596	3.79970E-001	4.88598E-009	0.00000E+000	3.80000E-001	8.00223E-005	4	..........a	-327.66
	2798	0.5598	3.69970E-001	4.79097E-009	0.00000E+000	3.70000E-001	8.00223E-005	4	..........a	-327.66
	2799	0.56	3.59870E-001	4.69697E-009	0.00000E+000	3.60000E-001	8.00223E-005	4	..........a	-327.66
	2800	0.5602	3.49870E-001	4.59796E-009	0.00000E+000	3.50000E-001	8.00223E-005	4	..........a	-327.66