File: example_project/raw_outputs/20240522_O_GM0016_HL03_E04_CV50.DTA
EXPLAIN
TAG	CV
TITLE	LABEL	Cyclic Voltammetry	Test &Identifier
DATE	LABEL	5/22/2024	Date
TIME	LABEL	17:37:08	Time
NOTES	NOTES	1	&Notes...

PSTAT	PSTAT	REF600P-43058	Potentiostat
VINIT	POTEN	0.00000E+000	T	Initial &E (V)
VLIMIT1	POTEN	8.00000E-001	F	Scan Limit &1 (V)
VLIMIT2	POTEN	-6.00000E-001	F	Scan Limit &2 (V)
VFINAL	POTEN	0.00000E+000	T	Final &E (V)
SCANRATE	QUANT	4.99999E+001	&Scan Rate (mV/s)
STEPSIZE	QUANT	1.00000E+001	St&ep Size (mV)
CYCLES	IQUANT	4	C&ycles (#)
IMODE	SELECTOR	0	I/E Range &Mode
IRANGE	QUANT	1.00000E-005	&Max Current (mA)
AREA	QUANT	1.00000E+000	Electrode &Area (cm^2)
ELECTRODETYPE	SELECTOR	0	Electrode Type
STRIPPING	TOGGLE	F	Used for Stripping
POLARITY	TOGGLE	F	Signal Polarity
CONDIT	TWOPARAM	F	1.50000E+001	0.00000E+000	Conditionin&g	Time(s)	E(V)
DELAY	TWOPARAM	T	1.00000E+001	0.00000E+000	Init. De&lay	Time(s)	Stab.(mV/s)
EQDELAY	QUANT	5.00000E+000	Equil. &Time (s)
IRCOMP	SELECTOR	0	IRCom&p
PFCOR	QUANT	5.00000E+001	PF Corr. (ohm)
SAMPLINGMODE	SELECTOR	1	Sampling &Mode
OCVCURVE	TABLE	39
	Pt	T	Vf	Vm	Ach	Over	Temp
	#	s	V vs. Ref.	V	V	bits	deg C
	0	0.258333	-1.53217E-001	-1.53217E-001	2.53326E-004	..........a	-327.66
	1	0.516667	-1.53218E-001	-1.53250E-001	2.43526E-004	..........a	-327.66
	2	0.775	-1.53222E-001	-1.53285E-001	2.48859E-004	..........a	-327.66
	3	1.03333	-1.53233E-001	-1.53310E-001	2.56859E-004	..........a	-327.66
	4	1.29167	-1.53253E-001	-1.53355E-001	2.53926E-004	..........a	-327.66
	5	1.55	-1.53281E-001	-1.53387E-001	2.63526E-004	..........a	-327.66
	6	1.80833	-1.53313E-001	-1.53424E-001	2.53926E-004	..........a	-327.66
	7	2.06667	-1.53348E-001	-1.53454E-001	2.51126E-004	..........a	-327.66
	8	2.325	-1.53384E-001	-1.53483E-001	2.51592E-004	..........a	-327.66
	9	2.58333	-1.53418E-001	-1.53532E-001	2.57459E-004	..........a	-327.66
	10	2.84167	-1.53452E-001	-1.53555E-001	2.48792E-004	..........a	-327.66
	11	3.1	-1.53487E-001	-1.53591E-001	2.41859E-004	..........a	-327.66
	12	3.35833	-1.53521E-001	-1.53616E-001	2.57726E-004	..........a	-327.66
	13	3.61667	-1.53554E-001	-1.53647E-001	2.45926E-004	..........a	-327.66
	14	3.875	-1.53585E-001	-1.53694E-001	2.60126E-004	..........a	-327.66
	15	4.13333	-1.53617E-001	-1.53723E-001	2.52592E-004	..........a	-327.66
	16	4.39167	-1.53651E-001	-1.53759E-001	2.43126E-004	..........a	-327.66
	17	4.65	-1.53685E-001	-1.53784E-001	2.61059E-004	..........a	-327.66
	18	4.90833	-1.53720E-001	-1.53815E-001	2.44526E-004	..........a	-327.66
	19	5.16667	-1.53752E-001	-1.53852E-001	2.56326E-004	..........a	-327.66
	20	5.425	-1.53784E-001	-1.53880E-001	2.40659E-004	..........a	-327.66
	21	5.68333	-1.53815E-001	-1.53918E-001	2.54526E-004	..........a	-327.66
	22	5.94167	-1.53848E-001	-1.53944E-001	2.52059E-004	..........a	-327.66
	23	6.2	-1.53880E-001	-1.53967E-001	2.35992E-004	..........a	-327.66
	24	6.45833	-1.53911E-001	-1.54007E-001	2.49192E-004	..........a	-327.66
	25	6.71667	-1.53941E-001	-1.54039E-001	2.62259E-004	..........a	-327.66
	26	6.975	-1.53972E-001	-1.54078E-001	2.43592E-004	..........a	-327.66
	27	7.23333	-1.54004E-001	-1.54106E-001	2.61259E-004	..........a	-327.66
	28	7.49167	-1.54038E-001	-1.54132E-001	2.41192E-004	..........a	-327.66
	29	7.75	-1.54071E-001	-1.54181E-001	2.54259E-004	..........a	-327.66
	30	8.00833	-1.54104E-001	-1.54207E-001	2.53192E-004	..........a	-327.66
	31	8.26667	-1.54137E-001	-1.54242E-001	2.52526E-004	..........a	-327.66
	32	8.525	-1.54171E-001	-1.54264E-001	2.63059E-004	..........a	-327.66
	33	8.78333	-1.54204E-001	-1.54281E-001	2.38859E-004	..........a	-327.66
	34	9.04167	-1.54234E-001	-1.54323E-001	2.37592E-004	..........a	-327.66
	35	9.3	-1.54261E-001	-1.54346E-001	2.68392E-004	..........a	-327.66
	36	9.5583	-1.54288E-001	-1.54379E-001	2.42059E-004	..........a	-327.66
	37	9.8167	-1.54317E-001	-1.54413E-001	2.62859E-004	..........a	-327.66
	38	10.075	-1.54346E-001	-1.54429E-001	2.70992E-004	..........a	-327.66
EOC	QUANT	-0.1543461	Open Circuit (V)
PSTATMODEL	IQUANT	7	Pstat Model
PSTATSECTION	LABEL	REF600P-43058	Pstat Section
PSTATSERIALNO	LABEL	43058	Pstat Serial Number
CTRLMODE	IQUANT	1	Control Mode
ELECTROMETER	IQUANT	0	RE=0 or CS=1
IESTAB	IQUANT	2	I/E Stability
CASPEED	IQUANT	4	Control Amp Speed
CONVENTION	IQUANT	1	Current Convention
ICHRANGE	IQUANT	2	Ich Range
ICHRANGEMODE	TOGGLE	F	Ich Auto Range
ICHOFFSETENABLE	TOGGLE	F	Ich Offset Enable
ICHOFFSET	QUANT	0	Ich Offset (V)
ICHFILTER	IQUANT	2	Ich Filter
VCHRANGE	IQUANT	2	Vch Range
VCHRANGEMODE	TOGGLE	F	Vch Auto Range
VCHOFFSETENABLE	TOGGLE	F	Vch Offset Enable
VCHOFFSET	QUANT	0	Vch Offset (V)
VCHFILTER	IQUANT	2	Vch Filter
ACHRANGE	IQUANT	2	Ach Range
ACHOFFSETENABLE	TOGGLE	F	Ach Offset Enable
ACHOFFSET	QUANT	0	Ach Offset (V)
ACHFILTER	IQUANT	1	Ach Filter
IERANGELOWERLIMIT	IQUANT	1	I/E Range Lower Limit
IERANGEMODE	TOGGLE	T	I/E AutoRange
IERANGE	IQUANT	4	I/E Range
POSFEEDENABLE	TOGGLE	F	Positive Feedback IR Comp
POSFEEDRESISTANCE	QUANT	0	Positive Feedback Resistance (ohm)
ACHSELECT	IQUANT	4	Ach Select
SENSECABLEID	IQUANT	7	Sense Cable ID
PWRCABLEID	IQUANT	7	Power Cable ID
DCCALDATE	LABEL	3/22/2024	DC Calibration Date
ACCALDATE	LABEL	3/22/2024	AC Calibration Date
THERMOSELECT	IQUANT	1	Thermo Select
FRAMEWORKVERSION	LABEL	7.8.4	Framework Version
INSTRUMENTVERSION	LABEL	4.42	Instrument Version
CURVE1	TABLE
	Pt	T	Vf	Im	Vu	Sig	Ach	IERange	Over	Temp
	#	s	V vs. Ref.	A	V	V	V	#	bits	deg C
	0	0.2	-1.54194E-001	3.16288E-010	0.00000E+000	-1.54350E-001	1.00549E-003	5	..........a	-327.66
	3	0.8	-1.24341E-001	1.76614E-008	0.00000E+000	-1.24350E-001	1.00959E-003	5	..........a	-327.66
	6	1.4	-9.42887E-002	2.64376E-008	0.00000E+000	-9.43500E-002	1.02259E-003	5	..........a	-327.66
	9	2	-6.42701E-002	3.33443E-008	0.00000E+000	-6.43500E-002	1.02839E-003	5	..........a	-327.66
	12	2.6	-3.42356E-002	3.96547E-008	0.00000E+000	-3.43500E-002	9.96792E-004	5	..........a	-327.66
	15	3.2	-4.32451E-003	4.57755E-008	0.00000E+000	-4.35000E-003	1.00119E-003	5	..........a	-327.66
	18	3.8	2.56054E-002	5.18525E-008	0.00000E+000	2.56500E-002	1.03949E-003	5	..........a	-327.66
	21	4.4	5.56601E-002	5.80617E-008	0.00000E+000	5.56500E-002	1.02289E-003	5	..........a	-327.66
	24	5	8.57186E-002	6.43530E-008	0.00000E+000	8.56500E-002	9.99792E-004	5	..........a	-327.66
	27	5.6	1.15657E-001	7.06437E-008	0.00000E+000	1.15650E-001	9.99892E-004	5	..........a	-327.66
	30	6.2	1.45659E-001	7.70771E-008	0.00000E+000	1.45650E-001	1.02029E-003	5	..........a	-327.66
	33	6.8	1.75635E-001	8.34789E-008	0.00000E+000	1.75650E-001	1.00789E-003	5	..........a	-327.66
	36	7.4	2.05668E-001	8.98013E-008	0.00000E+000	2.05650E-001	1.01379E-003	5	..........a	-327.66
	39	8	2.35617E-001	9.60995E-008	0.00000E+000	2.35650E-001	1.01209E-003	5	..........a	-327.66
	42	8.6	2.65628E-001	1.02045E-007	0.00000E+000	2.65650E-001	1.00649E-003	5	..........a	-327.66
	45	9.2	2.95664E-001	1.07328E-007	0.00000E+000	2.95650E-001	1.02589E-003	5	..........a	-327.66
	48	9.8	3.25720E-001	1.12360E-007	0.00000E+000	3.25650E-001	1.01649E-003	5	..........a	-327.66
	51	10.4	3.55632E-001	1.17528E-007	0.00000E+000	3.55650E-001	1.02049E-003	5	..........a	-327.66
	54	11	3.85581E-001	1.22006E-007	0.00000E+000	3.85650E-001	1.02529E-003	5	..........a	-327.66
	57	11.6	4.15618E-001	1.27214E-007	0.00000E+000	4.15650E-001	1.01179E-003	5	..........a	-327.66
	60	12.2	4.45615E-001	1.32631E-007	0.00000E+000	4.45650E-001	1.00879E-003	5	..........a	-327.66
	63	12.8	4.75540E-001	1.38193E-007	0.00000E+000	4.75650E-001	1.02949E-003	5	..........a	-327.66
	66	13.4	5.05532E-001	1.44385E-007	0.00000E+000	5.05650E-001	1.01569E-003	5	..........a	-327.66
	69	14	5.35573E-001	1.50351E-007	0.00000E+000	5.35650E-001	1.02989E-003	5	..........a	-327.66
	72	14.6	5.65574E-001	1.56900E-007	0.00000E+000	5.65650E-001	1.02429E-003	5	..........a	-327.66
	75	15.2	5.95542E-001	1.63503E-007	0.00000E+000	5.95650E-001	1.03099E-003	5	..........a	-327.66
	78	15.8	6.25530E-001	1.70680E-007	0.00000E+000	6.25650E-001	1.02909E-003	5	..........a	-327.66
	81	16.4	6.55558E-001	1.77660E-007	0.00000E+000	6.55650E-001	1.02159E-003	5	..........a	-327.66
	84	17	6.85535E-001	1.83715E-007	0.00000E+000	6.85650E-001	9.99992E-004	5	..........a	-327.66
	87	17.6	7.15485E-001	1.91519E-007	0.00000E+000	7.15650E-001	1.00599E-003	5	..........a	-327.66
	90	18.2	7.45501E-001	1.97541E-007	0.00000E+000	7.45650E-001	1.01039E-003	5	..........a	-327.66
	93	18.8	7.75573E-001	2.04427E-007	0.00000E+000	7.75650E-001	1.01389E-003	5	..........a	-327.66
	96	19.4	7.85464E-001	1.87344E-007	0.00000E+000	7.85650E-001	1.01099E-003	5	..........a	-327.66
	99	20	7.55600E-001	1.46890E-007	0.00000E+000	7.55650E-001	1.00409E-003	5	..........a	-327.66
	102	20.6	7.25573E-001	1.21834E-007	0.00000E+000	7.25650E-001	1.02149E-003	5	..........a	-327.66
	105	21.2	6.95583E-001	1.03427E-007	0.00000E+000	6.95650E-001	1.02839E-003	5	..........a	-327.66
	108	21.8	6.65511E-001	8.94802E-008	0.00000E+000	6.65650E-001	1.01629E-003	5	..........a	-327.66
	111	22.4	6.35583E-001	7.82453E-008	0.00000E+000	6.35650E-001	1.02989E-003	5	..........a	-327.66
	114	23	6.05695E-001	6.87877E-008	0.00000E+000	6.05650E-001	1.00889E-003	5	..........a	-327.66
	117	23.6	5.75672E-001	6.05917E-008	0.00000E+000	5.75650E-001	1.02449E-003	5	..........a	-327.66
	120	24.2	5.45612E-001	5.33058E-008	0.00000E+000	5.45650E-001	1.01389E-003	5	..........a	-327.66
	123	24.8	5.15599E-001	4.64635E-008	0.00000E+000	5.15650E-001	1.04559E-003	5	..........a	-327.66
	126	25.4	4.85674E-001	4.02145E-008	0.00000E+000	4.85650E-001	1.01179E-003	5	..........a	-327.66
	129	26	4.55611E-001	3.43226E-008	0.00000E+000	4.55650E-001	1.03049E-003	5	..........a	-327.66
	132	26.6	4.25565E-001	2.86496E-008	0.00000E+000	4.25650E-001	9.96792E-004	5	..........a	-327.66
	135	27.2	3.95687E-001	2.32179E-008	0.00000E+000	3.95650E-001	1.02299E-003	5	..........a	-327.66
	138	27.8	3.65738E-001	1.79749E-008	0.00000E+000	3.65650E-001	1.00379E-003	5	..........a	-327.66
	141	28.4	3.35634E-001	1.28477E-008	0.00000E+000	3.35650E-001	1.03469E-003	5	..........a	-327.66
	144	29	3.05592E-001	7.91849E-009	0.00000E+000	3.05650E-001	1.03179E-003	5	..........a	-327.66
	147	29.6	2.75606E-001	3.22208E-009	0.00000E+000	2.75650E-001	1.02369E-003	5	..........a	-327.66
	150	30.2	2.45824E-001	-1.44902E-009	0.00000E+000	2.45650E-001	1.02739E-003	5	..........a	-327.66
	153	30.8	2.15736E-001	-6.14332E-009	0.00000E+000	2.15650E-001	1.01309E-003	5	..........a	-327.66
	156	31.4	1.85726E-001	-1.08766E-008	0.00000E+000	1.85650E-001	1.00549E-003	5	..........a	-327.66
	159	32	1.55736E-001	-1.54028E-008	0.00000E+000	1.55650E-001	1.03199E-003	5	..........a	-327.66
	162	32.6	1.25851E-001	-1.97604E-008	0.00000E+000	1.25650E-001	1.00969E-003	5	..........a	-327.66
	165	33.2	9.57317E-002	-2.41605E-008	0.00000E+000	9.56500E-002	1.03139E-003	5	..........a	-327.66
	168	33.8	6.56558E-002	-2.88264E-008	0.00000E+000	6.56500E-002	1.01559E-003	5	..........a	-327.66
	171	34.4	3.57625E-002	-3.33760E-008	0.00000E+000	3.56500E-002	1.02839E-003	5	..........a	-327.66
	174	35	5.82119E-003	-3.78092E-008	0.00000E+000	5.65001E-003	1.00149E-003	5	..........a	-327.66
	177	35.6	-2.42715E-002	-4.23689E-008	0.00000E+000	-2.43500E-002	1.01999E-003	5	..........a	-327.66
	180	36.2	-5.42348E-002	-4.65511E-008	0.00000E+000	-5.43500E-002	1.00909E-003	5	..........a	-327.66
	183	36.8	-8.42582E-002	-5.04185E-008	0.00000E+000	-8.43500E-002	1.02489E-003	5	..........a	-327.66
	186	37.4	-1.14176E-001	-5.37327E-008	0.00000E+000	-1.14350E-001	1.00979E-003	5	..........a	-327.66
	189	38	-1.44244E-001	-5.70803E-008	0.00000E+000	-1.44350E-001	1.03749E-003	5	..........a	-327.66
	192	38.6	-1.74267E-001	-6.03763E-008	0.00000E+000	-1.74350E-001	1.02249E-003	5	..........a	-327.66
	195	39.2	-2.04290E-001	-6.36804E-008	0.00000E+000	-2.04350E-001	9.97692E-004	5	..........a	-327.66
	198	39.8	-2.34124E-001	-6.69670E-008	0.00000E+000	-2.34350E-001	1.01009E-003	5	..........a	-327.66
	201	40.4	-2.64219E-001	-7.02617E-008	0.00000E+000	-2.64350E-001	1.00449E-003	5	..........a	-327.66
	204	41	-2.94236E-001	-7.36886E-008	0.00000E+000	-2.94350E-001	1.01819E-003	5	..........a	-327.66
	207	41.6	-3.24220E-001	-7.72627E-008	0.00000E+000	-3.24350E-001	1.00919E-003	5	..........a	-327.66
	210	42.2	-3.54155E-001	-8.07057E-008	0.00000E+000	-3.54350E-001	1.00859E-003	5	..........a	-327.66
	213	42.8	-3.84255E-001	-8.42213E-008	0.00000E+000	-3.84350E-001	1.02279E-003	5	..........a	-327.66
	216	43.4	-4.14171E-001	-8.79642E-008	0.00000E+000	-4.14350E-001	1.01629E-003	5	..........a	-327.66
	219	44	-4.44195E-001	-9.20838E-008	0.00000E+000	-4.44350E-001	9.99892E-004	5	..........a	-327.66
	222	44.6	-4.74159E-001	-9.64775E-008	0.00000E+000	-4.74350E-001	1.00649E-003	5	..........a	-327.66
	225	45.2	-5.04184E-001	-1.01262E-007	0.00000E+000	-5.04350E-001	1.00259E-003	5	..........a	-327.66
	228	45.8	-5.34191E-001	-1.06487E-007	0.00000E+000	-5.34350E-001	1.01849E-003	5	..........a	-327.66
	231	46.4	-5.64176E-001	-1.12135E-007	0.00000E+000	-5.64350E-001	1.01189E-003	5	..........a	-327.66
	234	47	-5.94066E-001	-1.17966E-007	0.00000E+000	-5.94350E-001	1.02459E-003	5	..........a	-327.66
	235	47.2	-6.04176E-001	-1.20023E-007	0.00000E+000	-6.04350E-001	1.00459E-003	5	..........a	-327.66
CURVE2	TABLE
	Pt	T	Vf	Im	Vu	Sig	Ach	IERange	Over	Temp
	#	s	V vs. Ref.	A	V	V	V	#	bits	deg C
	236	47.4	-5.89846E-001	-9.86813E-008	0.00000E+000	-5.90000E-001	1.02749E-003	5	..........a	-327.66
	239	48	-5.59886E-001	-7.35344E-008	0.00000E+000	-5.60000E-001	1.02559E-003	5	..........a	-327.66
	242	48.6	-5.29844E-001	-5.69395E-008	0.00000E+000	-5.30000E-001	1.01109E-003	5	..........a	-327.66
	245	49.2	-4.99830E-001	-4.43062E-008	0.00000E+000	-5.00000E-001	1.00269E-003	5	..........a	-327.66
	248	49.8	-4.69842E-001	-3.39580E-008	0.00000E+000	-4.70000E-001	1.00769E-003	5	..........a	-327.66
	251	50.4	-4.39864E-001	-2.51676E-008	0.00000E+000	-4.40000E-001	1.01149E-003	5	..........a	-327.66
	254	51	-4.09918E-001	-1.75180E-008	0.00000E+000	-4.10000E-001	1.03119E-003	5	..........a	-327.66
	257	51.6	-3.79843E-001	-1.06201E-008	0.00000E+000	-3.80000E-001	1.01669E-003	5	..........a	-327.66
	260	52.2	-3.49870E-001	-4.31472E-009	0.00000E+000	-3.50000E-001	1.00759E-003	5	..........a	-327.66
	263	52.8	-3.19887E-001	1.53904E-009	0.00000E+000	-3.20000E-001	1.02129E-003	5	..........a	-327.66
	266	53.4	-2.89944E-001	7.07041E-009	0.00000E+000	-2.90000E-001	1.02549E-003	5	..........a	-327.66
	269	54	-2.59819E-001	1.23712E-008	0.00000E+000	-2.60000E-001	1.00039E-003	5	..........a	-327.66
	272	54.6	-2.29968E-001	1.75340E-008	0.00000E+000	-2.30000E-001	1.02539E-003	5	..........a	-327.66
	275	55.2	-2.00004E-001	2.25947E-008	0.00000E+000	-2.00000E-001	1.02069E-003	5	..........a	-327.66
	278	55.8	-1.69925E-001	2.76556E-008	0.00000E+000	-1.70000E-001	1.02059E-003	5	..........a	-327.66
	281	56.4	-1.39885E-001	3.28089E-008	0.00000E+000	-1.40000E-001	1.00029E-003	5	..........a	-327.66
	284	57	-1.10004E-001	3.79660E-008	0.00000E+000	-1.10000E-001	1.00489E-003	5	..........a	-327.66
	287	57.6	-8.00410E-002	4.33335E-008	0.00000E+000	-8.00000E-002	1.04049E-003	5	..........a	-327.66
	290	58.2	-4.99778E-002	4.88699E-008	0.00000E+000	-5.00000E-002	1.00959E-003	5	..........a	-327.66
	293	58.8	-1.99773E-002	5.46342E-008	0.00000E+000	-2.00000E-002	1.01049E-003	5	..........a	-327.66
	296	59.4	1.00546E-002	6.02429E-008	0.00000E+000	1.00000E-002	1.01179E-003	5	..........a	-327.66
	299	60	4.00065E-002	6.60606E-008	0.00000E+000	4.00000E-002	1.00669E-003	5	..........a	-327.66
	302	60.6	6.99647E-002	7.19511E-008	0.00000E+000	7.00000E-002	1.04309E-003	5	..........a	-327.66
	305	61.2	1.00045E-001	7.77336E-008	0.00000E+000	1.00000E-001	1.03199E-003	5	..........a	-327.66
	308	61.8	1.29960E-001	8.36268E-008	0.00000E+000	1.30000E-001	1.01569E-003	5	..........a	-327.66
	311	62.4	1.59959E-001	8.95038E-008	0.00000E+000	1.60000E-001	1.00759E-003	5	..........a	-327.66
	314	63	1.90034E-001	9.51312E-008	0.00000E+000	1.90000E-001	1.02359E-003	5	..........a	-327.66
	317	63.6	2.19993E-001	1.00438E-007	0.00000E+000	2.20000E-001	1.00689E-003	5	..........a	-327.66
	320	64.2	2.49896E-001	1.05441E-007	0.00000E+000	2.50000E-001	1.03379E-003	5	..........a	-327.66
	323	64.8	2.79914E-001	1.10101E-007	0.00000E+000	2.80000E-001	1.01349E-003	5	..........a	-327.66
	326	65.4	3.09987E-001	1.13232E-007	0.00000E+000	3.10000E-001	1.02279E-003	5	..........a	-327.66
	329	66	3.39999E-001	1.16778E-007	0.00000E+000	3.40000E-001	1.02839E-003	5	..........a	-327.66
	332	66.6	3.69959E-001	1.21091E-007	0.00000E+000	3.70000E-001	1.03999E-003	5	..........a	-327.66
	335	67.2	3.99929E-001	1.25125E-007	0.00000E+000	4.00000E-001	1.03329E-003	5	..........a	-327.66
	338	67.8	4.29958E-001	1.29405E-007	0.00000E+000	4.30000E-001	1.03469E-003	5	..........a	-327.66
	341	68.4	4.59927E-001	1.33784E-007	0.00000E+000	4.60000E-001	1.01109E-003	5	..........a	-327.66
	344	69	4.89913E-001	1.38433E-007	0.00000E+000	4.90000E-001	1.01199E-003	5	..........a	-327.66
	347	69.6	5.19919E-001	1.43322E-007	0.00000E+000	5.20000E-001	1.01029E-003	5	..........a	-327.66
	350	70.2	5.49984E-001	1.48761E-007	0.00000E+000	5.50000E-001	1.02529E-003	5	..........a	-327.66
	353	70.8	5.79940E-001	1.54510E-007	0.00000E+000	5.80000E-001	1.00939E-003	5	..........a	-327.66
	356	71.4	6.09931E-001	1.59594E-007	0.00000E+000	6.10000E-001	1.02249E-003	5	..........a	-327.66
	359	72	6.39843E-001	1.64658E-007	0.00000E+000	6.40000E-001	1.02709E-003	5	..........a	-327.66
[...]
	958	191.8	5.69964E-001	5.54609E-008	0.00000E+000	5.70000E-001	1.04089E-003	5	..........a	-327.66
	961	192.4	5.39994E-001	4.87441E-008	0.00000E+000	5.40000E-001	1.02239E-003	5	..........a	-327.66
	964	193	5.09972E-001	4.25202E-008	0.00000E+000	5.10000E-001	1.03479E-003	5	..........a	-327.66
	967	193.6	4.79945E-001	3.66027E-008	0.00000E+000	4.80000E-001	1.02749E-003	5	..........a	-327.66
	970	194.2	4.49928E-001	3.09868E-008	0.00000E+000	4.50000E-001	1.01869E-003	5	..........a	-327.66
	973	194.8	4.20031E-001	2.56060E-008	0.00000E+000	4.20000E-001	1.02099E-003	5	..........a	-327.66
	976	195.4	3.90040E-001	2.04585E-008	0.00000E+000	3.90000E-001	1.01599E-003	5	..........a	-327.66
	979	196	3.59997E-001	1.54053E-008	0.00000E+000	3.60000E-001	1.02689E-003	5	..........a	-327.66
	982	196.6	3.30009E-001	1.03869E-008	0.00000E+000	3.30000E-001	1.01489E-003	5	..........a	-327.66
	985	197.2	3.00119E-001	5.48123E-009	0.00000E+000	3.00000E-001	1.00589E-003	5	..........a	-327.66
	988	197.8	2.70059E-001	7.99246E-010	0.00000E+000	2.70000E-001	1.01499E-003	5	..........a	-327.66
	991	198.4	2.40101E-001	-3.94327E-009	0.00000E+000	2.40000E-001	1.02119E-003	5	..........a	-327.66
	994	199	2.10033E-001	-8.38101E-009	0.00000E+000	2.10000E-001	1.02779E-003	5	..........a	-327.66
	997	199.6	1.80121E-001	-1.28907E-008	0.00000E+000	1.80000E-001	1.01209E-003	5	..........a	-327.66
	1000	200.2	1.50064E-001	-1.77354E-008	0.00000E+000	1.50000E-001	1.01199E-003	5	..........a	-327.66
	1003	200.8	1.20059E-001	-2.17098E-008	0.00000E+000	1.20000E-001	1.02939E-003	5	..........a	-327.66
	1006	201.4	9.01237E-002	-2.59410E-008	0.00000E+000	9.00000E-002	1.00919E-003	5	..........a	-327.66
	1009	202	6.01515E-002	-3.07168E-008	0.00000E+000	6.00000E-002	1.00399E-003	5	..........a	-327.66
	1012	202.6	3.00885E-002	-3.52664E-008	0.00000E+000	3.00000E-002	1.02529E-003	5	..........a	-327.66
	1015	203.2	5.90917E-005	-4.02789E-008	0.00000E+000	7.45058E-009	1.03229E-003	5	..........a	-327.66
	1018	203.8	-2.98942E-002	-4.52376E-008	0.00000E+000	-3.00000E-002	1.01699E-003	5	..........a	-327.66
	1021	204.4	-5.98212E-002	-4.93027E-008	0.00000E+000	-6.00000E-002	1.00199E-003	5	..........a	-327.66
	1024	205	-8.98762E-002	-5.28522E-008	0.00000E+000	-9.00000E-002	1.00449E-003	5	..........a	-327.66
	1027	205.6	-1.19889E-001	-5.63463E-008	0.00000E+000	-1.20000E-001	1.03559E-003	5	..........a	-327.66
	1030	206.2	-1.49923E-001	-5.98503E-008	0.00000E+000	-1.50000E-001	1.02179E-003	5	..........a	-327.66
	1033	206.8	-1.79857E-001	-6.32487E-008	0.00000E+000	-1.80000E-001	1.01749E-003	5	..........a	-327.66
	1036	207.4	-2.09871E-001	-6.67194E-008	0.00000E+000	-2.10000E-001	1.01689E-003	5	..........a	-327.66
	1039	208	-2.39852E-001	-7.02610E-008	0.00000E+000	-2.40000E-001	1.02379E-003	5	..........a	-327.66
	1042	208.6	-2.69848E-001	-7.37931E-008	0.00000E+000	-2.70000E-001	1.00449E-003	5	..........a	-327.66
	1045	209.2	-2.99816E-001	-7.71456E-008	0.00000E+000	-3.00000E-001	9.97692E-004	5	..........a	-327.66
	1048	209.8	-3.29873E-001	-8.03992E-008	0.00000E+000	-3.30000E-001	1.03019E-003	5	..........a	-327.66
	1051	210.4	-3.59904E-001	-8.38409E-008	0.00000E+000	-3.60000E-001	1.03369E-003	5	..........a	-327.66
	1054	211	-3.89863E-001	-8.74655E-008	0.00000E+000	-3.90000E-001	1.01309E-003	5	..........a	-327.66
	1057	211.6	-4.19745E-001	-9.12750E-008	0.00000E+000	-4.20000E-001	1.00689E-003	5	..........a	-327.66
	1060	212.2	-4.49820E-001	-9.53551E-008	0.00000E+000	-4.50000E-001	9.98092E-004	5	..........a	-327.66
	1063	212.8	-4.79824E-001	-9.97693E-008	0.00000E+000	-4.80000E-001	1.02599E-003	5	..........a	-327.66
	1066	213.4	-5.09827E-001	-1.04512E-007	0.00000E+000	-5.10000E-001	9.98592E-004	5	..........a	-327.66
	1069	214	-5.39737E-001	-1.09749E-007	0.00000E+000	-5.40000E-001	1.03259E-003	5	..........a	-327.66
	1072	214.6	-5.69843E-001	-1.15413E-007	0.00000E+000	-5.70000E-001	1.02469E-003	5	..........a	-327.66
	1075	215.2	-5.99895E-001	-1.21432E-007	0.00000E+000	-6.00000E-001	1.00349E-003	5	..........a	-327.66
CURVE5	TABLE
	Pt	T	Vf	Im	Vu	Sig	Ach	IERange	Over	Temp
	#	s	V vs. Ref.	A	V	V	V	#	bits	deg C
	1076	215.4	-5.89859E-001	-1.04298E-007	0.00000E+000	-5.90000E-001	1.01739E-003	5	..........a	-327.66
	1077	215.6	-5.79786E-001	-9.29831E-008	0.00000E+000	-5.80000E-001	1.00609E-003	5	..........a	-327.66
	1078	215.8	-5.69871E-001	-8.42023E-008	0.00000E+000	-5.70000E-001	1.01679E-003	5	..........a	-327.66
	1079	216	-5.59855E-001	-7.68228E-008	0.00000E+000	-5.60000E-001	1.02829E-003	5	..........a	-327.66
	1080	216.2	-5.49842E-001	-7.04768E-008	0.00000E+000	-5.50000E-001	9.96092E-004	5	..........a	-327.66
	1081	216.4	-5.39757E-001	-6.48257E-008	0.00000E+000	-5.40000E-001	1.01039E-003	5	..........a	-327.66
	1082	216.6	-5.29828E-001	-5.96648E-008	0.00000E+000	-5.30000E-001	1.01289E-003	5	..........a	-327.66
	1083	216.8	-5.19864E-001	-5.50037E-008	0.00000E+000	-5.20000E-001	1.02569E-003	5	..........a	-327.66
	1084	217	-5.09845E-001	-5.07130E-008	0.00000E+000	-5.10000E-001	1.03479E-003	5	..........a	-327.66
	1085	217.2	-4.99822E-001	-4.67181E-008	0.00000E+000	-5.00000E-001	1.01919E-003	5	..........a	-327.66
	1086	217.4	-4.89878E-001	-4.29793E-008	0.00000E+000	-4.90000E-001	1.01399E-003	5	..........a	-327.66
	1087	217.6	-4.79840E-001	-3.94293E-008	0.00000E+000	-4.80000E-001	1.03449E-003	5	..........a	-327.66
	1088	217.8	-4.69845E-001	-3.61628E-008	0.00000E+000	-4.70000E-001	9.95292E-004	5	..........a	-327.66
	1089	218	-4.59800E-001	-3.29923E-008	0.00000E+000	-4.60000E-001	1.02879E-003	5	..........a	-327.66
	1090	218.2	-4.49837E-001	-2.99927E-008	0.00000E+000	-4.50000E-001	1.03419E-003	5	..........a	-327.66
	1091	218.4	-4.39876E-001	-2.71537E-008	0.00000E+000	-4.40000E-001	9.97892E-004	5	..........a	-327.66
	1092	218.6	-4.29845E-001	-2.44092E-008	0.00000E+000	-4.30000E-001	1.03349E-003	5	..........a	-327.66
	1093	218.8	-4.19779E-001	-2.17948E-008	0.00000E+000	-4.20000E-001	9.95192E-004	5	..........a	-327.66
	1094	219	-4.09865E-001	-1.92752E-008	0.00000E+000	-4.10000E-001	1.00589E-003	5	..........a	-327.66
	1095	219.2	-3.99872E-001	-1.68536E-008	0.00000E+000	-4.00000E-001	1.00739E-003	5	..........a	-327.66
	1096	219.4	-3.89895E-001	-1.45047E-008	0.00000E+000	-3.90000E-001	1.01779E-003	5	..........a	-327.66
	1097	219.6	-3.79849E-001	-1.22233E-008	0.00000E+000	-3.80000E-001	1.01639E-003	5	..........a	-327.66
	1098	219.8	-3.69848E-001	-9.99323E-009	0.00000E+000	-3.70000E-001	9.90892E-004	5	..........a	-327.66
	1099	220	-3.59915E-001	-7.85280E-009	0.00000E+000	-3.60000E-001	1.01989E-003	5	..........a	-327.66
	1100	220.2	-3.49875E-001	-5.76629E-009	0.00000E+000	-3.50000E-001	1.01959E-003	5	..........a	-327.66
	1101	220.4	-3.39838E-001	-3.73194E-009	0.00000E+000	-3.40000E-001	1.01859E-003	5	..........a	-327.66
	1102	220.6	-3.29947E-001	-1.73684E-009	0.00000E+000	-3.30000E-001	1.01159E-003	5	..........a	-327.66
	1103	220.8	-3.19892E-001	2.36785E-010	0.00000E+000	-3.20000E-001	1.01949E-003	5	..........a	-327.66
	1104	221	-3.09945E-001	2.18572E-009	0.00000E+000	-3.10000E-001	1.02579E-003	5	..........a	-327.66
	1105	221.2	-2.99867E-001	4.06760E-009	0.00000E+000	-3.00000E-001	1.00329E-003	5	..........a	-327.66
	1106	221.4	-2.89936E-001	5.91649E-009	0.00000E+000	-2.90000E-001	1.05139E-003	5	..........a	-327.66
	1107	221.6	-2.79963E-001	7.75977E-009	0.00000E+000	-2.80000E-001	1.01299E-003	5	..........a	-327.66
	1108	221.8	-2.69882E-001	9.56155E-009	0.00000E+000	-2.70000E-001	1.00329E-003	5	..........a	-327.66
	1109	222	-2.59807E-001	1.13733E-008	0.00000E+000	-2.60000E-001	1.01199E-003	5	..........a	-327.66
	1110	222.2	-2.49928E-001	1.31338E-008	0.00000E+000	-2.50000E-001	1.02149E-003	5	..........a	-327.66
	1111	222.4	-2.39939E-001	1.48988E-008	0.00000E+000	-2.40000E-001	1.02659E-003	5	..........a	-327.66
	1112	222.6	-2.29937E-001	1.66440E-008	0.00000E+000	-2.30000E-001	1.01909E-003	5	..........a	-327.66
	1113	222.8	-2.19892E-001	1.83995E-008	0.00000E+000	-2.20000E-001	1.02079E-003	5	..........a	-327.66
	1114	223	-2.09929E-001	2.01204E-008	0.00000E+000	-2.10000E-001	1.02199E-003	5	..........a	-327.66
	1115	223.2	-1.99969E-001	2.18616E-008	0.00000E+000	-2.00000E-001	1.00369E-003	5	..........a	-327.66
	1116	223.4	-1.89998E-001	2.35845E-008	0.00000E+000	-1.90000E-001	9.99092E-004	5	..........a	-327.66
	1117	223.6	-1.79922E-001	2.53135E-008	0.00000E+000	-1.80000E-001	1.00919E-003	5	..........a	-327.66
	1118	223.8	-1.69901E-001	2.70515E-008	0.00000E+000	-1.70000E-001	1.01359E-003	5	..........a	-327.66
	1119	224	-1.60027E-001	2.87679E-008	0.00000E+000	-1.60000E-001	1.01849E-003	5	..........a	-327.66
	1120	224.2	-1.49967E-001	3.04994E-008	0.00000E+000	-1.50000E-001	1.01049E-003	5	..........a	-327.66