File: example_project/raw_outputs/20240321_ZZG_GM0016_HL03_E15_CV50.DTA
EXPLAIN
TAG	CV
TITLE	LABEL	Cyclic Voltammetry	Test &Identifier
DATE	LABEL	3/21/2024	Date
TIME	LABEL	19:50:03	Time
NOTES	NOTES	1	&Notes...

PSTAT	PSTAT	REF600P-43058	Potentiostat
VINIT	POTEN	0.00000E+000	T	Initial &E (V)
VLIMIT1	POTEN	-6.00000E-001	F	Scan Limit &1 (V)
VLIMIT2	POTEN	8.00000E-001	F	Scan Limit &2 (V)
VFINAL	POTEN	0.00000E+000	T	Final &E (V)
SCANRATE	QUANT	4.99999E+001	&Scan Rate (mV/s)
STEPSIZE	QUANT	1.00000E+001	St&ep Size (mV)
CYCLES	IQUANT	4	C&ycles (#)
IMODE	SELECTOR	1	I/E Range &Mode
IRANGE	QUANT	1.00000E-005	&Max Current (mA)
AREA	QUANT	1.00000E+000	Electrode &Area (cm^2)
ELECTRODETYPE	SELECTOR	0	Electrode Type
STRIPPING	TOGGLE	F	Used for Stripping
POLARITY	TOGGLE	F	Signal Polarity
CONDIT	TWOPARAM	F	1.50000E+001	0.00000E+000	Conditionin&g	Time(s)	E(V)
DELAY	TWOPARAM	T	1.00000E+001	0.00000E+000	Init. De&lay	Time(s)	Stab.(mV/s)
EQDELAY	QUANT	1.00000E+001	Equil. &Time (s)
IRCOMP	SELECTOR	0	IRCom&p
PFCOR	QUANT	5.00000E+001	PF Corr. (ohm)
SAMPLINGMODE	SELECTOR	1	Sampling &Mode
OCVCURVE	TABLE	39
	Pt	T	Vf	Vm	Ach	Over	Temp
	#	s	V vs. Ref.	V	V	bits	deg C
	0	0.258333	1.75018E-001	1.75018E-001	2.59156E-004	..........a	-327.66
	1	0.516667	1.75029E-001	1.75623E-001	2.67356E-004	..........a	-327.66
	2	0.775	1.75103E-001	1.76316E-001	2.79556E-004	..........a	-327.66
	3	1.03333	1.75319E-001	1.77074E-001	2.74689E-004	..........a	-327.66
	4	1.29167	1.75730E-001	1.77844E-001	2.68356E-004	..........a	-327.66
	5	1.55	1.76317E-001	1.78631E-001	2.74156E-004	..........a	-327.66
	6	1.80833	1.77019E-001	1.79430E-001	2.73489E-004	..........a	-327.66
	7	2.06667	1.77781E-001	1.80237E-001	2.51889E-004	..........a	-327.66
	8	2.325	1.78570E-001	1.81050E-001	2.60156E-004	..........a	-327.66
	9	2.58333	1.79370E-001	1.81857E-001	2.74489E-004	..........a	-327.66
	10	2.84167	1.80176E-001	1.82664E-001	2.76822E-004	..........a	-327.66
	11	3.1	1.80984E-001	1.83465E-001	2.63022E-004	..........a	-327.66
	12	3.35833	1.81792E-001	1.84262E-001	2.82022E-004	..........a	-327.66
	13	3.61667	1.82597E-001	1.85058E-001	2.73356E-004	..........a	-327.66
	14	3.875	1.83400E-001	1.85852E-001	2.87956E-004	..........a	-327.66
	15	4.13333	1.84199E-001	1.86647E-001	2.82956E-004	..........a	-327.66
	16	4.39167	1.84995E-001	1.87429E-001	2.89156E-004	..........a	-327.66
	17	4.65	1.85789E-001	1.88203E-001	2.64956E-004	..........a	-327.66
	18	4.90833	1.86578E-001	1.88985E-001	2.77622E-004	..........a	-327.66
	19	5.16667	1.87363E-001	1.89754E-001	2.69489E-004	..........a	-327.66
	20	5.425	1.88144E-001	1.90527E-001	2.59822E-004	..........a	-327.66
	21	5.68333	1.88920E-001	1.91297E-001	2.71556E-004	..........a	-327.66
	22	5.94167	1.89694E-001	1.92056E-001	2.84489E-004	..........a	-327.66
	23	6.2	1.90465E-001	1.92811E-001	2.74222E-004	..........a	-327.66
	24	6.45833	1.91231E-001	1.93562E-001	2.47089E-004	..........a	-327.66
	25	6.71667	1.91993E-001	1.94304E-001	2.65756E-004	..........a	-327.66
	26	6.975	1.92749E-001	1.95044E-001	2.66556E-004	..........a	-327.66
	27	7.23333	1.93499E-001	1.95785E-001	2.68356E-004	..........a	-327.66
	28	7.49167	1.94244E-001	1.96506E-001	2.62489E-004	..........a	-327.66
	29	7.75	1.94985E-001	1.97239E-001	2.68422E-004	..........a	-327.66
	30	8.00833	1.95720E-001	1.97956E-001	2.59556E-004	..........a	-327.66
	31	8.26667	1.96451E-001	1.98672E-001	2.54556E-004	..........a	-327.66
	32	8.525	1.97176E-001	1.99385E-001	2.77956E-004	..........a	-327.66
	33	8.78333	1.97898E-001	2.00102E-001	2.56556E-004	..........a	-327.66
	34	9.04167	1.98615E-001	2.00810E-001	2.66089E-004	..........a	-327.66
	35	9.3	1.99330E-001	2.01508E-001	2.72756E-004	..........a	-327.66
	36	9.5583	2.00042E-001	2.02208E-001	2.60756E-004	..........a	-327.66
	37	9.8167	2.00749E-001	2.02900E-001	2.60556E-004	..........a	-327.66
	38	10.075	2.01452E-001	2.03594E-001	2.68422E-004	..........a	-327.66
EOC	QUANT	0.2014519	Open Circuit (V)
PSTATMODEL	IQUANT	7	Pstat Model
PSTATSECTION	LABEL	REF600P-43058	Pstat Section
PSTATSERIALNO	LABEL	43058	Pstat Serial Number
CTRLMODE	IQUANT	1	Control Mode
ELECTROMETER	IQUANT	0	RE=0 or CS=1
IESTAB	IQUANT	2	I/E Stability
CASPEED	IQUANT	4	Control Amp Speed
CONVENTION	IQUANT	1	Current Convention
ICHRANGE	IQUANT	2	Ich Range
ICHRANGEMODE	TOGGLE	F	Ich Auto Range
ICHOFFSETENABLE	TOGGLE	F	Ich Offset Enable
ICHOFFSET	QUANT	0	Ich Offset (V)
ICHFILTER	IQUANT	2	Ich Filter
VCHRANGE	IQUANT	2	Vch Range
VCHRANGEMODE	TOGGLE	F	Vch Auto Range
VCHOFFSETENABLE	TOGGLE	F	Vch Offset Enable
VCHOFFSET	QUANT	0	Vch Offset (V)
VCHFILTER	IQUANT	2	Vch Filter
ACHRANGE	IQUANT	2	Ach Range
ACHOFFSETENABLE	TOGGLE	F	Ach Offset Enable
ACHOFFSET	QUANT	0	Ach Offset (V)
ACHFILTER	IQUANT	1	Ach Filter
IERANGELOWERLIMIT	IQUANT	1	I/E Range Lower Limit
IERANGEMODE	TOGGLE	F	I/E AutoRange
IERANGE	IQUANT	4	I/E Range
POSFEEDENABLE	TOGGLE	F	Positive Feedback IR Comp
POSFEEDRESISTANCE	QUANT	0	Positive Feedback Resistance (ohm)
ACHSELECT	IQUANT	4	Ach Select
SENSECABLEID	IQUANT	7	Sense Cable ID
PWRCABLEID	IQUANT	7	Power Cable ID
DCCALDATE	LABEL	12/18/2023	DC Calibration Date
ACCALDATE	LABEL	12/18/2023	AC Calibration Date
THERMOSELECT	IQUANT	1	Thermo Select
FRAMEWORKVERSION	LABEL	7.8.4	Framework Version
INSTRUMENTVERSION	LABEL	4.42	Instrument Version
CURVE1	TABLE
	Pt	T	Vf	Im	Vu	Sig	Ach	IERange	Over	Temp
	#	s	V vs. Ref.	A	V	V	V	#	bits	deg C
	0	0.2	2.01469E-001	1.72525E-011	0.00000E+000	2.01450E-001	1.04572E-003	4	..........a	-327.66
	3	0.8	1.71447E-001	-3.42235E-011	0.00000E+000	1.71450E-001	1.00912E-003	4	..........a	-327.66
	6	1.4	1.41579E-001	-5.14212E-011	0.00000E+000	1.41450E-001	1.00542E-003	4	..........a	-327.66
	9	2	1.11484E-001	-6.73518E-011	0.00000E+000	1.11450E-001	9.81122E-004	4	..........a	-327.66
	12	2.6	8.14290E-002	-7.82352E-011	0.00000E+000	8.14500E-002	1.03662E-003	4	..........a	-327.66
	15	3.2	5.14562E-002	-9.07457E-011	0.00000E+000	5.14500E-002	1.01822E-003	4	..........a	-327.66
	18	3.8	2.15748E-002	-1.02933E-010	0.00000E+000	2.14500E-002	1.00662E-003	4	..........a	-327.66
	21	4.4	-8.56411E-003	-1.14892E-010	0.00000E+000	-8.55000E-003	1.01182E-003	4	..........a	-327.66
	24	5	-3.85720E-002	-1.27761E-010	0.00000E+000	-3.85500E-002	1.01502E-003	4	..........a	-327.66
	27	5.6	-6.85580E-002	-1.41304E-010	0.00000E+000	-6.85500E-002	1.03872E-003	4	..........a	-327.66
	30	6.2	-9.84384E-002	-1.56704E-010	0.00000E+000	-9.85500E-002	1.03182E-003	4	..........a	-327.66
	33	6.8	-1.28592E-001	-1.74337E-010	0.00000E+000	-1.28550E-001	1.03642E-003	4	..........a	-327.66
	36	7.4	-1.58582E-001	-1.93846E-010	0.00000E+000	-1.58550E-001	1.02692E-003	4	..........a	-327.66
	39	8	-1.88537E-001	-2.14119E-010	0.00000E+000	-1.88550E-001	1.02602E-003	4	..........a	-327.66
	42	8.6	-2.18475E-001	-2.35269E-010	0.00000E+000	-2.18550E-001	1.04702E-003	4	..........a	-327.66
	45	9.2	-2.48532E-001	-2.60238E-010	0.00000E+000	-2.48550E-001	1.04152E-003	4	..........a	-327.66
	48	9.8	-2.78470E-001	-2.90653E-010	0.00000E+000	-2.78550E-001	1.00452E-003	4	..........a	-327.66
	51	10.4	-3.08529E-001	-3.10480E-010	0.00000E+000	-3.08550E-001	1.01012E-003	4	..........a	-327.66
	54	11	-3.38425E-001	-3.38798E-010	0.00000E+000	-3.38550E-001	1.01842E-003	4	..........a	-327.66
	57	11.6	-3.68534E-001	-3.69172E-010	0.00000E+000	-3.68550E-001	1.01522E-003	4	..........a	-327.66
	60	12.2	-3.98469E-001	-4.03572E-010	0.00000E+000	-3.98550E-001	1.00312E-003	4	..........a	-327.66
	63	12.8	-4.28481E-001	-4.42115E-010	0.00000E+000	-4.28550E-001	1.01662E-003	4	..........a	-327.66
	66	13.4	-4.58432E-001	-4.79264E-010	0.00000E+000	-4.58550E-001	1.00542E-003	4	..........a	-327.66
	69	14	-4.88509E-001	-5.22988E-010	0.00000E+000	-4.88550E-001	1.05022E-003	4	..........a	-327.66
	72	14.6	-5.18468E-001	-5.76065E-010	0.00000E+000	-5.18550E-001	1.02232E-003	4	..........a	-327.66
	75	15.2	-5.48523E-001	-6.35222E-010	0.00000E+000	-5.48550E-001	9.96022E-004	4	..........a	-327.66
	78	15.8	-5.78425E-001	-7.08514E-010	0.00000E+000	-5.78550E-001	1.02642E-003	4	..........a	-327.66
	81	16.4	-5.88567E-001	-5.91687E-010	0.00000E+000	-5.88550E-001	1.02132E-003	4	..........a	-327.66
	84	17	-5.58475E-001	-3.23072E-010	0.00000E+000	-5.58550E-001	1.01682E-003	4	..........a	-327.66
	87	17.6	-5.28513E-001	-1.76400E-010	0.00000E+000	-5.28550E-001	1.02272E-003	4	..........a	-327.66
	90	18.2	-4.98393E-001	-8.65785E-011	0.00000E+000	-4.98550E-001	1.01852E-003	4	..........a	-327.66
	93	18.8	-4.68462E-001	-2.73563E-011	0.00000E+000	-4.68550E-001	9.93222E-004	4	..........a	-327.66
	96	19.4	-4.38465E-001	1.90885E-011	0.00000E+000	-4.38550E-001	1.01602E-003	4	..........a	-327.66
	99	20	-4.08531E-001	5.29938E-011	0.00000E+000	-4.08550E-001	9.93522E-004	4	..........a	-327.66
	102	20.6	-3.78438E-001	8.05469E-011	0.00000E+000	-3.78550E-001	1.00552E-003	4	..........a	-327.66
	105	21.2	-3.48499E-001	1.00696E-010	0.00000E+000	-3.48550E-001	1.01302E-003	4	..........a	-327.66
	108	21.8	-3.18564E-001	1.20636E-010	0.00000E+000	-3.18550E-001	1.03352E-003	4	..........a	-327.66
	111	22.4	-2.88523E-001	1.34377E-010	0.00000E+000	-2.88550E-001	9.84422E-004	4	..........a	-327.66
	114	23	-2.58426E-001	1.45286E-010	0.00000E+000	-2.58550E-001	1.00262E-003	4	..........a	-327.66
	117	23.6	-2.28525E-001	1.53251E-010	0.00000E+000	-2.28550E-001	1.04142E-003	4	..........a	-327.66
	120	24.2	-1.98564E-001	1.56146E-010	0.00000E+000	-1.98550E-001	9.98822E-004	4	..........a	-327.66
	123	24.8	-1.68559E-001	1.64207E-010	0.00000E+000	-1.68550E-001	1.02142E-003	4	..........a	-327.66
	126	25.4	-1.38537E-001	1.66169E-010	0.00000E+000	-1.38550E-001	1.00362E-003	4	..........a	-327.66
	129	26	-1.08554E-001	1.68754E-010	0.00000E+000	-1.08550E-001	1.02112E-003	4	..........a	-327.66
	132	26.6	-7.85412E-002	1.70971E-010	0.00000E+000	-7.85500E-002	1.03142E-003	4	..........a	-327.66
	135	27.2	-4.85500E-002	1.73301E-010	0.00000E+000	-4.85500E-002	9.99422E-004	4	..........a	-327.66
	138	27.8	-1.84953E-002	1.76929E-010	0.00000E+000	-1.85500E-002	1.04772E-003	4	..........a	-327.66
	141	28.4	1.14599E-002	1.79052E-010	0.00000E+000	1.14500E-002	1.02682E-003	4	..........a	-327.66
	144	29	4.14465E-002	1.82807E-010	0.00000E+000	4.14500E-002	1.03492E-003	4	..........a	-327.66
	147	29.6	7.14857E-002	1.85478E-010	0.00000E+000	7.14500E-002	1.00022E-003	4	..........a	-327.66
	150	30.2	1.01593E-001	1.92263E-010	0.00000E+000	1.01450E-001	1.03112E-003	4	..........a	-327.66
	153	30.8	1.31462E-001	1.94970E-010	0.00000E+000	1.31450E-001	1.02312E-003	4	..........a	-327.66
	156	31.4	1.61480E-001	2.01003E-010	0.00000E+000	1.61450E-001	1.01472E-003	4	..........a	-327.66
	159	32	1.91458E-001	2.08752E-010	0.00000E+000	1.91450E-001	1.02182E-003	4	..........a	-327.66
	162	32.6	2.21557E-001	2.17147E-010	0.00000E+000	2.21450E-001	1.02692E-003	4	..........a	-327.66
	165	33.2	2.51447E-001	2.21207E-010	0.00000E+000	2.51450E-001	1.00132E-003	4	..........a	-327.66
	168	33.8	2.81358E-001	2.34577E-010	0.00000E+000	2.81450E-001	1.02652E-003	4	..........a	-327.66
	171	34.4	3.11432E-001	2.45317E-010	0.00000E+000	3.11450E-001	1.05022E-003	4	..........a	-327.66
	174	35	3.41528E-001	2.57427E-010	0.00000E+000	3.41450E-001	9.98122E-004	4	..........a	-327.66
	177	35.6	3.71365E-001	2.70358E-010	0.00000E+000	3.71450E-001	1.01682E-003	4	..........a	-327.66
	180	36.2	4.01424E-001	2.84082E-010	0.00000E+000	4.01450E-001	1.02062E-003	4	..........a	-327.66
	183	36.8	4.31357E-001	3.00684E-010	0.00000E+000	4.31450E-001	1.01572E-003	4	..........a	-327.66
	186	37.4	4.61481E-001	3.18277E-010	0.00000E+000	4.61450E-001	1.00562E-003	4	..........a	-327.66
	189	38	4.91403E-001	3.39934E-010	0.00000E+000	4.91450E-001	1.01042E-003	4	..........a	-327.66
	192	38.6	5.21414E-001	3.62203E-010	0.00000E+000	5.21450E-001	1.00242E-003	4	..........a	-327.66
	195	39.2	5.51375E-001	3.86856E-010	0.00000E+000	5.51450E-001	1.02862E-003	4	..........a	-327.66
	198	39.8	5.81518E-001	4.13773E-010	0.00000E+000	5.81450E-001	1.00382E-003	4	..........a	-327.66
	201	40.4	6.11391E-001	4.42603E-010	0.00000E+000	6.11450E-001	1.01142E-003	4	..........a	-327.66
	204	41	6.41396E-001	4.73095E-010	0.00000E+000	6.41450E-001	1.02572E-003	4	..........a	-327.66
	207	41.6	6.71381E-001	5.05981E-010	0.00000E+000	6.71450E-001	1.00762E-003	4	..........a	-327.66
	210	42.2	7.01414E-001	5.41429E-010	0.00000E+000	7.01450E-001	9.95722E-004	4	..........a	-327.66
	213	42.8	7.31026E-001	5.77217E-010	0.00000E+000	7.31450E-001	1.03012E-003	4	..........a	-327.66
	216	43.4	7.61276E-001	6.28568E-010	0.00000E+000	7.61450E-001	1.00732E-003	4	..........a	-327.66
	219	44	7.91373E-001	6.88731E-010	0.00000E+000	7.91450E-001	1.00342E-003	4	..........a	-327.66
	220	44.2	8.01384E-001	7.12731E-010	0.00000E+000	8.01450E-001	1.01462E-003	4	..........a	-327.66
CURVE2	TABLE
	Pt	T	Vf	Im	Vu	Sig	Ach	IERange	Over	Temp
	#	s	V vs. Ref.	A	V	V	V	#	bits	deg C
	221	44.4	7.89818E-001	5.43645E-010	0.00000E+000	7.90000E-001	1.05362E-003	4	..........a	-327.66
	224	45	7.59868E-001	3.12845E-010	0.00000E+000	7.60000E-001	1.03032E-003	4	..........a	-327.66
	227	45.6	7.29980E-001	1.94959E-010	0.00000E+000	7.30000E-001	9.85122E-004	4	..........a	-327.66
	230	46.2	6.99981E-001	1.21963E-010	0.00000E+000	7.00000E-001	1.00642E-003	4	..........a	-327.66
	233	46.8	6.69902E-001	7.05735E-011	0.00000E+000	6.70000E-001	1.02242E-003	4	..........a	-327.66
	236	47.4	6.39874E-001	3.27981E-011	0.00000E+000	6.40000E-001	1.00732E-003	4	..........a	-327.66
	239	48	6.09900E-001	2.96991E-012	0.00000E+000	6.10000E-001	1.03082E-003	4	..........a	-327.66
	242	48.6	5.79996E-001	-2.04710E-011	0.00000E+000	5.80000E-001	1.01762E-003	4	..........a	-327.66
	245	49.2	5.49957E-001	-3.85707E-011	0.00000E+000	5.50000E-001	9.90222E-004	4	..........a	-327.66
	248	49.8	5.19973E-001	-5.59944E-011	0.00000E+000	5.20000E-001	1.01442E-003	4	..........a	-327.66
	251	50.4	4.89968E-001	-7.12729E-011	0.00000E+000	4.90000E-001	1.00192E-003	4	..........a	-327.66
	254	51	4.60011E-001	-8.47225E-011	0.00000E+000	4.60000E-001	1.02422E-003	4	..........a	-327.66
	257	51.6	4.29934E-001	-9.76750E-011	0.00000E+000	4.30000E-001	1.02712E-003	4	..........a	-327.66
	260	52.2	4.00059E-001	-1.09713E-010	0.00000E+000	4.00000E-001	1.00802E-003	4	..........a	-327.66
	263	52.8	3.69993E-001	-1.21124E-010	0.00000E+000	3.70000E-001	1.04152E-003	4	..........a	-327.66
	266	53.4	3.40031E-001	-1.33735E-010	0.00000E+000	3.40000E-001	1.00342E-003	4	..........a	-327.66
	269	54	3.09940E-001	-1.43402E-010	0.00000E+000	3.10000E-001	1.01142E-003	4	..........a	-327.66
	272	54.6	2.80002E-001	-1.53297E-010	0.00000E+000	2.80000E-001	9.99622E-004	4	..........a	-327.66
	275	55.2	2.49987E-001	-1.62525E-010	0.00000E+000	2.50000E-001	1.03382E-003	4	..........a	-327.66
	278	55.8	2.20015E-001	-1.69177E-010	0.00000E+000	2.20000E-001	1.03522E-003	4	..........a	-327.66
	281	56.4	1.90000E-001	-1.74792E-010	0.00000E+000	1.90000E-001	1.01052E-003	4	..........a	-327.66
	284	57	1.60019E-001	-1.80143E-010	0.00000E+000	1.60000E-001	1.01042E-003	4	..........a	-327.66
	287	57.6	1.30060E-001	-1.83944E-010	0.00000E+000	1.30000E-001	1.02312E-003	4	..........a	-327.66
	290	58.2	9.99636E-002	-1.89643E-010	0.00000E+000	1.00000E-001	1.03592E-003	4	..........a	-327.66
	293	58.8	6.99623E-002	-1.95209E-010	0.00000E+000	7.00000E-002	1.01462E-003	4	..........a	-327.66
	296	59.4	4.00003E-002	-2.03493E-010	0.00000E+000	4.00000E-002	1.00772E-003	4	..........a	-327.66
	299	60	1.00583E-002	-2.12832E-010	0.00000E+000	1.00000E-002	1.00252E-003	4	..........a	-327.66
	302	60.6	-1.99534E-002	-2.26408E-010	0.00000E+000	-2.00000E-002	1.01562E-003	4	..........a	-327.66
	305	61.2	-5.00729E-002	-2.40552E-010	0.00000E+000	-5.00000E-002	1.01422E-003	4	..........a	-327.66
	308	61.8	-8.00536E-002	-2.57849E-010	0.00000E+000	-8.00000E-002	1.02732E-003	4	..........a	-327.66
	311	62.4	-1.10008E-001	-2.75508E-010	0.00000E+000	-1.10000E-001	1.01882E-003	4	..........a	-327.66
	314	63	-1.39901E-001	-2.92694E-010	0.00000E+000	-1.40000E-001	1.02852E-003	4	..........a	-327.66
	317	63.6	-1.69947E-001	-3.10424E-010	0.00000E+000	-1.70000E-001	1.02502E-003	4	..........a	-327.66
	320	64.2	-1.99926E-001	-3.29815E-010	0.00000E+000	-2.00000E-001	1.03782E-003	4	..........a	-327.66
	323	64.8	-2.29997E-001	-3.47755E-010	0.00000E+000	-2.30000E-001	9.80922E-004	4	..........a	-327.66
	326	65.4	-2.59867E-001	-3.58153E-010	0.00000E+000	-2.60000E-001	1.02672E-003	4	..........a	-327.66
	329	66	-2.89966E-001	-3.87583E-010	0.00000E+000	-2.90000E-001	9.88222E-004	4	..........a	-327.66
	332	66.6	-3.19895E-001	-4.06644E-010	0.00000E+000	-3.20000E-001	1.03612E-003	4	..........a	-327.66
	335	67.2	-3.49912E-001	-4.27868E-010	0.00000E+000	-3.50000E-001	1.01182E-003	4	..........a	-327.66
	338	67.8	-3.79880E-001	-4.53109E-010	0.00000E+000	-3.80000E-001	1.03042E-003	4	..........a	-327.66
	341	68.4	-4.09929E-001	-4.77716E-010	0.00000E+000	-4.10000E-001	1.03342E-003	4	..........a	-327.66
	344	69	-4.39918E-001	-5.10814E-010	0.00000E+000	-4.40000E-001	1.03072E-003	4	..........a	-327.66
	347	69.6	-4.69872E-001	-5.48046E-010	0.00000E+000	-4.70000E-001	9.83622E-004	4	..........a	-327.66
	350	70.2	-4.99901E-001	-5.87656E-010	0.00000E+000	-5.00000E-001	1.02802E-003	4	..........a	-327.66
	353	70.8	-5.29901E-001	-6.40552E-010	0.00000E+000	-5.30000E-001	1.02962E-003	4	..........a	-327.66
	356	71.4	-5.59926E-001	-7.04622E-010	0.00000E+000	-5.60000E-001	1.01842E-003	4	..........a	-327.66
	359	72	-5.89896E-001	-7.89489E-010	0.00000E+000	-5.90000E-001	1.01012E-003	4	..........a	-327.66
[...]
	934	187	-4.59887E-001	-3.96787E-011	0.00000E+000	-4.60000E-001	9.98022E-004	4	..........a	-327.66
	937	187.6	-4.29901E-001	5.70902E-012	0.00000E+000	-4.30000E-001	1.00122E-003	4	..........a	-327.66
	940	188.2	-3.99894E-001	4.13884E-011	0.00000E+000	-4.00000E-001	1.01032E-003	4	..........a	-327.66
	943	188.8	-3.69981E-001	7.10755E-011	0.00000E+000	-3.70000E-001	1.01482E-003	4	..........a	-327.66
	946	189.4	-3.39960E-001	9.65545E-011	0.00000E+000	-3.40000E-001	1.01902E-003	4	..........a	-327.66
	949	190	-3.09936E-001	1.18640E-010	0.00000E+000	-3.10000E-001	1.00462E-003	4	..........a	-327.66
	952	190.6	-2.79919E-001	1.37192E-010	0.00000E+000	-2.80000E-001	9.92322E-004	4	..........a	-327.66
	955	191.2	-2.49937E-001	1.51932E-010	0.00000E+000	-2.50000E-001	1.00252E-003	4	..........a	-327.66
	958	191.8	-2.19923E-001	1.65031E-010	0.00000E+000	-2.20000E-001	9.76822E-004	4	..........a	-327.66
	961	192.4	-1.90162E-001	1.72607E-010	0.00000E+000	-1.90000E-001	1.01552E-003	4	..........a	-327.66
	964	193	-1.59994E-001	1.78802E-010	0.00000E+000	-1.60000E-001	9.94522E-004	4	..........a	-327.66
	967	193.6	-1.30020E-001	1.85847E-010	0.00000E+000	-1.30000E-001	1.01042E-003	4	..........a	-327.66
	970	194.2	-9.99366E-002	1.87213E-010	0.00000E+000	-1.00000E-001	9.96322E-004	4	..........a	-327.66
	973	194.8	-6.99564E-002	1.88251E-010	0.00000E+000	-7.00000E-002	1.02572E-003	4	..........a	-327.66
	976	195.4	-3.99710E-002	1.92100E-010	0.00000E+000	-4.00000E-002	9.98022E-004	4	..........a	-327.66
	979	196	-1.00188E-002	1.95389E-010	0.00000E+000	-1.00000E-002	1.01552E-003	4	..........a	-327.66
	982	196.6	2.00431E-002	1.98412E-010	0.00000E+000	2.00000E-002	1.02002E-003	4	..........a	-327.66
	985	197.2	5.00934E-002	2.01141E-010	0.00000E+000	5.00000E-002	1.00712E-003	4	..........a	-327.66
	988	197.8	8.00367E-002	2.04961E-010	0.00000E+000	8.00000E-002	9.98322E-004	4	..........a	-327.66
	991	198.4	1.10043E-001	2.11657E-010	0.00000E+000	1.10000E-001	9.92222E-004	4	..........a	-327.66
	994	199	1.40098E-001	2.17167E-010	0.00000E+000	1.40000E-001	9.96922E-004	4	..........a	-327.66
	997	199.6	1.70073E-001	2.21742E-010	0.00000E+000	1.70000E-001	1.01382E-003	4	..........a	-327.66
	1000	200.2	1.99923E-001	2.34496E-010	0.00000E+000	2.00000E-001	1.02402E-003	4	..........a	-327.66
	1003	200.8	2.29931E-001	2.47390E-010	0.00000E+000	2.30000E-001	1.01022E-003	4	..........a	-327.66
	1006	201.4	2.59930E-001	2.59547E-010	0.00000E+000	2.60000E-001	1.02932E-003	4	..........a	-327.66
	1009	202	2.89960E-001	2.71806E-010	0.00000E+000	2.90000E-001	9.85022E-004	4	..........a	-327.66
	1012	202.6	3.19950E-001	2.81535E-010	0.00000E+000	3.20000E-001	1.00282E-003	4	..........a	-327.66
	1015	203.2	3.49924E-001	2.90181E-010	0.00000E+000	3.50000E-001	1.03422E-003	4	..........a	-327.66
	1018	203.8	3.79981E-001	2.98638E-010	0.00000E+000	3.80000E-001	9.97722E-004	4	..........a	-327.66
	1021	204.4	4.09917E-001	3.05780E-010	0.00000E+000	4.10000E-001	1.01412E-003	4	..........a	-327.66
	1024	205	4.39919E-001	3.12894E-010	0.00000E+000	4.40000E-001	9.83622E-004	4	..........a	-327.66
	1027	205.6	4.69929E-001	3.20037E-010	0.00000E+000	4.70000E-001	9.87622E-004	4	..........a	-327.66
	1030	206.2	5.00008E-001	3.28317E-010	0.00000E+000	5.00000E-001	1.01192E-003	4	..........a	-327.66
	1033	206.8	5.29909E-001	3.38485E-010	0.00000E+000	5.30000E-001	1.00692E-003	4	..........a	-327.66
	1036	207.4	5.59995E-001	3.50141E-010	0.00000E+000	5.60000E-001	1.01512E-003	4	..........a	-327.66
	1039	208	5.89914E-001	3.65132E-010	0.00000E+000	5.90000E-001	1.00232E-003	4	..........a	-327.66
	1042	208.6	6.19996E-001	3.84449E-010	0.00000E+000	6.20000E-001	1.01152E-003	4	..........a	-327.66
	1045	209.2	6.49919E-001	4.06416E-010	0.00000E+000	6.50000E-001	9.85422E-004	4	..........a	-327.66
	1047	209.6	6.69901E-001	4.24079E-010	0.00000E+000	6.70000E-001	9.95322E-004	4	..........a	-327.66
CURVE5	TABLE
	Pt	T	Vf	Im	Vu	Sig	Ach	IERange	Over	Temp
	#	s	V vs. Ref.	A	V	V	V	#	bits	deg C
	1048	209.8	6.60025E-001	3.11829E-010	0.00000E+000	6.60000E-001	9.80022E-004	4	..........a	-327.66
	1049	210	6.49960E-001	2.48087E-010	0.00000E+000	6.50000E-001	9.87022E-004	4	..........a	-327.66
	1050	210.2	6.39942E-001	2.02401E-010	0.00000E+000	6.40000E-001	1.00882E-003	4	..........a	-327.66
	1051	210.4	6.29929E-001	1.70172E-010	0.00000E+000	6.30000E-001	9.98822E-004	4	..........a	-327.66
	1052	210.6	6.19984E-001	1.43492E-010	0.00000E+000	6.20000E-001	9.84822E-004	4	..........a	-327.66
	1053	210.8	6.09960E-001	1.23040E-010	0.00000E+000	6.10000E-001	1.00242E-003	4	..........a	-327.66
	1054	211	5.99953E-001	1.03624E-010	0.00000E+000	6.00000E-001	9.89822E-004	4	..........a	-327.66
	1055	211.2	5.89973E-001	8.92702E-011	0.00000E+000	5.90000E-001	9.78322E-004	4	..........a	-327.66
	1056	211.4	5.80013E-001	7.55017E-011	0.00000E+000	5.80000E-001	1.01942E-003	4	..........a	-327.66
	1057	211.6	5.69954E-001	6.18932E-011	0.00000E+000	5.70000E-001	9.94322E-004	4	..........a	-327.66
	1058	211.8	5.59974E-001	5.30278E-011	0.00000E+000	5.60000E-001	1.00142E-003	4	..........a	-327.66
	1059	212	5.49959E-001	4.26614E-011	0.00000E+000	5.50000E-001	9.88922E-004	4	..........a	-327.66
	1060	212.2	5.39990E-001	3.18060E-011	0.00000E+000	5.40000E-001	1.02542E-003	4	..........a	-327.66
	1061	212.4	5.29961E-001	2.46977E-011	0.00000E+000	5.30000E-001	9.73122E-004	4	..........a	-327.66
	1062	212.6	5.19973E-001	1.57084E-011	0.00000E+000	5.20000E-001	9.98422E-004	4	..........a	-327.66
	1063	212.8	5.09932E-001	8.20711E-012	0.00000E+000	5.10000E-001	1.00432E-003	4	..........a	-327.66
	1064	213	4.99994E-001	-1.00024E-012	0.00000E+000	5.00000E-001	1.00592E-003	4	..........a	-327.66
	1065	213.2	4.89956E-001	-7.01147E-012	0.00000E+000	4.90000E-001	1.00302E-003	4	..........a	-327.66
	1066	213.4	4.79839E-001	-1.37237E-011	0.00000E+000	4.80000E-001	9.87822E-004	4	..........a	-327.66
	1067	213.6	4.69953E-001	-2.13610E-011	0.00000E+000	4.70000E-001	9.92022E-004	4	..........a	-327.66
	1068	213.8	4.60003E-001	-2.85943E-011	0.00000E+000	4.60000E-001	1.00552E-003	4	..........a	-327.66
	1069	214	4.49952E-001	-3.55226E-011	0.00000E+000	4.50000E-001	9.96522E-004	4	..........a	-327.66
	1070	214.2	4.39982E-001	-4.09738E-011	0.00000E+000	4.40000E-001	1.00642E-003	4	..........a	-327.66
	1071	214.4	4.29918E-001	-4.63100E-011	0.00000E+000	4.30000E-001	1.01262E-003	4	..........a	-327.66
	1072	214.6	4.20016E-001	-5.27872E-011	0.00000E+000	4.20000E-001	9.81522E-004	4	..........a	-327.66
	1073	214.8	4.09951E-001	-5.85105E-011	0.00000E+000	4.10000E-001	9.90122E-004	4	..........a	-327.66
	1074	215	3.99958E-001	-6.57557E-011	0.00000E+000	4.00000E-001	9.96622E-004	4	..........a	-327.66
	1075	215.2	3.89977E-001	-7.01189E-011	0.00000E+000	3.90000E-001	1.02492E-003	4	..........a	-327.66
	1076	215.4	3.80037E-001	-7.51541E-011	0.00000E+000	3.80000E-001	9.78322E-004	4	..........a	-327.66
	1077	215.6	3.69979E-001	-8.16173E-011	0.00000E+000	3.70000E-001	9.94722E-004	4	..........a	-327.66
	1078	215.8	3.59962E-001	-8.69775E-011	0.00000E+000	3.60000E-001	1.01232E-003	4	..........a	-327.66
	1079	216	3.49968E-001	-9.31608E-011	0.00000E+000	3.50000E-001	1.00962E-003	4	..........a	-327.66
	1080	216.2	3.40053E-001	-9.67869E-011	0.00000E+000	3.40000E-001	1.00902E-003	4	..........a	-327.66
	1081	216.4	3.30002E-001	-1.02519E-010	0.00000E+000	3.30000E-001	9.91222E-004	4	..........a	-327.66
	1082	216.6	3.20001E-001	-1.07061E-010	0.00000E+000	3.20000E-001	9.82622E-004	4	..........a	-327.66
	1083	216.8	3.09940E-001	-1.12759E-010	0.00000E+000	3.10000E-001	1.03032E-003	4	..........a	-327.66
	1084	217	3.00028E-001	-1.16649E-010	0.00000E+000	3.00000E-001	1.01132E-003	4	..........a	-327.66
	1085	217.2	2.89993E-001	-1.21162E-010	0.00000E+000	2.90000E-001	9.91022E-004	4	..........a	-327.66
	1086	217.4	2.79978E-001	-1.25610E-010	0.00000E+000	2.80000E-001	1.01872E-003	4	..........a	-327.66
	1087	217.6	2.69948E-001	-1.30665E-010	0.00000E+000	2.70000E-001	9.79322E-004	4	..........a	-327.66
	1088	217.8	2.60008E-001	-1.33766E-010	0.00000E+000	2.60000E-001	9.95122E-004	4	..........a	-327.66
	1089	218	2.49982E-001	-1.36788E-010	0.00000E+000	2.50000E-001	9.82522E-004	4	..........a	-327.66
	1090	218.2	2.39918E-001	-1.39734E-010	0.00000E+000	2.40000E-001	9.84222E-004	4	..........a	-327.66
	1091	218.4	2.29943E-001	-1.42947E-010	0.00000E+000	2.30000E-001	9.94322E-004	4	..........a	-327.66
	1092	218.6	2.19996E-001	-1.45819E-010	0.00000E+000	2.20000E-001	1.00182E-003	4	..........a	-327.66
	1093	218.8	2.09994E-001	-1.48095E-010	0.00000E+000	2.10000E-001	1.00842E-003	4	..........a	-327.66
	1094	219	2.00032E-001	-1.49884E-010	0.00000E+000	2.00000E-001	1.01922E-003	4	..........a	-327.66