File: example_project/raw_outputs/20240424_ZZK_GM0016_HL03_E16_CV50.DTA
EXPLAIN
TAG	CV
TITLE	LABEL	Cyclic Voltammetry	Test &Identifier
DATE	LABEL	4/24/2024	Date
TIME	LABEL	20:09:27	Time
NOTES	NOTES	1	&Notes...

PSTAT	PSTAT	REF600P-43058	Potentiostat
VINIT	POTEN	0.00000E+000	T	Initial &E (V)
VLIMIT1	POTEN	-6.00000E-001	F	Scan Limit &1 (V)
VLIMIT2	POTEN	8.00000E-001	F	Scan Limit &2 (V)
VFINAL	POTEN	0.00000E+000	T	Final &E (V)
SCANRATE	QUANT	4.99999E+001	&Scan Rate (mV/s)
STEPSIZE	QUANT	1.00000E+001	St&ep Size (mV)
CYCLES	IQUANT	4	C&ycles (#)
IMODE	SELECTOR	0	I/E Range &Mode
IRANGE	QUANT	1.00000E-005	&Max Current (mA)
AREA	QUANT	1.00000E+000	Electrode &Area (cm^2)
ELECTRODETYPE	SELECTOR	0	Electrode Type
STRIPPING	TOGGLE	F	Used for Stripping
POLARITY	TOGGLE	F	Signal Polarity
CONDIT	TWOPARAM	F	1.50000E+001	0.00000E+000	Conditionin&g	Time(s)	E(V)
DELAY	TWOPARAM	T	1.00000E+001	0.00000E+000	Init. De&lay	Time(s)	Stab.(mV/s)
EQDELAY	QUANT	1.00000E+001	Equil. &Time (s)
IRCOMP	SELECTOR	0	IRCom&p
PFCOR	QUANT	5.00000E+001	PF Corr. (ohm)
SAMPLINGMODE	SELECTOR	1	Sampling &Mode
OCVCURVE	TABLE	39
	Pt	T	Vf	Vm	Ach	Over	Temp
	#	s	V vs. Ref.	V	V	bits	deg C
	0	0.258333	-4.46659E-002	-4.46659E-002	2.54126E-004	..........a	-327.66
	1	0.516667	-4.46686E-002	-4.48033E-002	2.48326E-004	..........a	-327.66
	2	0.775	-4.46843E-002	-4.49164E-002	2.59526E-004	..........a	-327.66
	3	1.03333	-4.47282E-002	-4.50398E-002	2.53659E-004	..........a	-327.66
	4	1.29167	-4.48057E-002	-4.51524E-002	2.45992E-004	..........a	-327.66
	5	1.55	-4.49086E-002	-4.52778E-002	2.52059E-004	..........a	-327.66
	6	1.80833	-4.50243E-002	-4.53879E-002	2.56392E-004	..........a	-327.66
	7	2.06667	-4.51438E-002	-4.55058E-002	2.55459E-004	..........a	-327.66
	8	2.325	-4.52627E-002	-4.56153E-002	2.57059E-004	..........a	-327.66
	9	2.58333	-4.53795E-002	-4.57314E-002	2.38926E-004	..........a	-327.66
	10	2.84167	-4.54945E-002	-4.58456E-002	2.49126E-004	..........a	-327.66
	11	3.1	-4.56084E-002	-4.59476E-002	2.57792E-004	..........a	-327.66
	12	3.35833	-4.57213E-002	-4.60699E-002	2.40326E-004	..........a	-327.66
	13	3.61667	-4.58334E-002	-4.61790E-002	2.62859E-004	..........a	-327.66
	14	3.875	-4.59452E-002	-4.62774E-002	2.51992E-004	..........a	-327.66
	15	4.13333	-4.60564E-002	-4.63981E-002	2.41792E-004	..........a	-327.66
	16	4.39167	-4.61664E-002	-4.64984E-002	2.54326E-004	..........a	-327.66
	17	4.65	-4.62752E-002	-4.65922E-002	2.51926E-004	..........a	-327.66
	18	4.90833	-4.63823E-002	-4.67101E-002	2.48326E-004	..........a	-327.66
	19	5.16667	-4.64876E-002	-4.68068E-002	2.50792E-004	..........a	-327.66
	20	5.425	-4.65918E-002	-4.69012E-002	2.76992E-004	..........a	-327.66
	21	5.68333	-4.66948E-002	-4.69976E-002	2.56926E-004	..........a	-327.66
	22	5.94167	-4.67957E-002	-4.71025E-002	2.60259E-004	..........a	-327.66
	23	6.2	-4.68949E-002	-4.72026E-002	2.38992E-004	..........a	-327.66
	24	6.45833	-4.69939E-002	-4.72991E-002	2.43126E-004	..........a	-327.66
	25	6.71667	-4.70932E-002	-4.73838E-002	2.71859E-004	..........a	-327.66
	26	6.975	-4.71911E-002	-4.74769E-002	2.44326E-004	..........a	-327.66
	27	7.23333	-4.72863E-002	-4.75710E-002	2.41659E-004	..........a	-327.66
	28	7.49167	-4.73793E-002	-4.76652E-002	2.56192E-004	..........a	-327.66
	29	7.75	-4.74715E-002	-4.77568E-002	2.37526E-004	..........a	-327.66
	30	8.00833	-4.75640E-002	-4.78460E-002	2.52992E-004	..........a	-327.66
	31	8.26667	-4.76564E-002	-4.79372E-002	2.47392E-004	..........a	-327.66
	32	8.525	-4.77482E-002	-4.80227E-002	2.54126E-004	..........a	-327.66
	33	8.78333	-4.78388E-002	-4.81157E-002	2.56792E-004	..........a	-327.66
	34	9.04167	-4.79286E-002	-4.81990E-002	2.44192E-004	..........a	-327.66
	35	9.3	-4.80176E-002	-4.82901E-002	2.48792E-004	..........a	-327.66
	36	9.5583	-4.81061E-002	-4.83770E-002	2.55059E-004	..........a	-327.66
	37	9.8167	-4.81943E-002	-4.84693E-002	2.66459E-004	..........a	-327.66
	38	10.075	-4.82827E-002	-4.85513E-002	2.45059E-004	..........a	-327.66
EOC	QUANT	-0.0482827	Open Circuit (V)
PSTATMODEL	IQUANT	7	Pstat Model
PSTATSECTION	LABEL	REF600P-43058	Pstat Section
PSTATSERIALNO	LABEL	43058	Pstat Serial Number
CTRLMODE	IQUANT	1	Control Mode
ELECTROMETER	IQUANT	0	RE=0 or CS=1
IESTAB	IQUANT	2	I/E Stability
CASPEED	IQUANT	4	Control Amp Speed
CONVENTION	IQUANT	1	Current Convention
ICHRANGE	IQUANT	2	Ich Range
ICHRANGEMODE	TOGGLE	F	Ich Auto Range
ICHOFFSETENABLE	TOGGLE	F	Ich Offset Enable
ICHOFFSET	QUANT	0	Ich Offset (V)
ICHFILTER	IQUANT	2	Ich Filter
VCHRANGE	IQUANT	2	Vch Range
VCHRANGEMODE	TOGGLE	F	Vch Auto Range
VCHOFFSETENABLE	TOGGLE	F	Vch Offset Enable
VCHOFFSET	QUANT	0	Vch Offset (V)
VCHFILTER	IQUANT	2	Vch Filter
ACHRANGE	IQUANT	2	Ach Range
ACHOFFSETENABLE	TOGGLE	F	Ach Offset Enable
ACHOFFSET	QUANT	0	Ach Offset (V)
ACHFILTER	IQUANT	1	Ach Filter
IERANGELOWERLIMIT	IQUANT	1	I/E Range Lower Limit
IERANGEMODE	TOGGLE	T	I/E AutoRange
IERANGE	IQUANT	4	I/E Range
POSFEEDENABLE	TOGGLE	F	Positive Feedback IR Comp
POSFEEDRESISTANCE	QUANT	0	Positive Feedback Resistance (ohm)
ACHSELECT	IQUANT	4	Ach Select
SENSECABLEID	IQUANT	7	Sense Cable ID
PWRCABLEID	IQUANT	7	Power Cable ID
DCCALDATE	LABEL	3/22/2024	DC Calibration Date
ACCALDATE	LABEL	3/22/2024	AC Calibration Date
THERMOSELECT	IQUANT	1	Thermo Select
FRAMEWORKVERSION	LABEL	7.8.4	Framework Version
INSTRUMENTVERSION	LABEL	4.42	Instrument Version
CURVE1	TABLE
	Pt	T	Vf	Im	Vu	Sig	Ach	IERange	Over	Temp
	#	s	V vs. Ref.	A	V	V	V	#	bits	deg C
	0	0.2	-4.82749E-002	8.12577E-010	0.00000E+000	-4.83000E-002	1.00169E-003	5	..........a	-327.66
	2	0.6	-6.82346E-002	-6.17535E-009	0.00000E+000	-6.83000E-002	1.02489E-003	5	..........a	-327.66
	4	1	-8.82726E-002	-1.14751E-008	0.00000E+000	-8.83000E-002	1.02909E-003	5	..........a	-327.66
	6	1.4	-1.08267E-001	-1.62518E-008	0.00000E+000	-1.08300E-001	1.00959E-003	5	..........a	-327.66
	8	1.8	-1.28270E-001	-2.08577E-008	0.00000E+000	-1.28300E-001	1.02399E-003	5	..........a	-327.66
	10	2.2	-1.48252E-001	-2.52660E-008	0.00000E+000	-1.48300E-001	1.00699E-003	5	..........a	-327.66
	12	2.6	-1.68233E-001	-2.96114E-008	0.00000E+000	-1.68300E-001	1.04969E-003	5	..........a	-327.66
	14	3	-1.88245E-001	-3.38741E-008	0.00000E+000	-1.88300E-001	1.03029E-003	5	..........a	-327.66
	16	3.4	-2.08252E-001	-3.80340E-008	0.00000E+000	-2.08300E-001	1.03169E-003	5	..........a	-327.66
	18	3.8	-2.28232E-001	-4.21948E-008	0.00000E+000	-2.28300E-001	1.01869E-003	5	..........a	-327.66
	20	4.2	-2.48218E-001	-4.63284E-008	0.00000E+000	-2.48300E-001	1.03399E-003	5	..........a	-327.66
	22	4.6	-2.68233E-001	-5.05671E-008	0.00000E+000	-2.68300E-001	1.02169E-003	5	..........a	-327.66
	24	5	-2.88211E-001	-5.50003E-008	0.00000E+000	-2.88300E-001	1.00419E-003	5	..........a	-327.66
	26	5.4	-3.08226E-001	-5.97957E-008	0.00000E+000	-3.08300E-001	1.02059E-003	5	..........a	-327.66
	28	5.8	-3.28211E-001	-6.50966E-008	0.00000E+000	-3.28300E-001	1.06119E-003	5	..........a	-327.66
	30	6.2	-3.48205E-001	-7.08491E-008	0.00000E+000	-3.48300E-001	1.02039E-003	5	..........a	-327.66
	32	6.6	-3.68211E-001	-7.70693E-008	0.00000E+000	-3.68300E-001	1.01709E-003	5	..........a	-327.66
	34	7	-3.88199E-001	-8.35182E-008	0.00000E+000	-3.88300E-001	1.04839E-003	5	..........a	-327.66
	36	7.4	-4.08200E-001	-8.99930E-008	0.00000E+000	-4.08300E-001	1.03419E-003	5	..........a	-327.66
	38	7.8	-4.28172E-001	-9.63039E-008	0.00000E+000	-4.28300E-001	1.02309E-003	5	..........a	-327.66
	40	8.2	-4.48178E-001	-1.02432E-007	0.00000E+000	-4.48300E-001	1.01589E-003	5	..........a	-327.66
	42	8.6	-4.68164E-001	-1.08416E-007	0.00000E+000	-4.68300E-001	1.03559E-003	5	..........a	-327.66
	44	9	-4.88160E-001	-1.14307E-007	0.00000E+000	-4.88300E-001	1.02409E-003	5	..........a	-327.66
	46	9.4	-5.08136E-001	-1.20227E-007	0.00000E+000	-5.08300E-001	1.01799E-003	5	..........a	-327.66
	48	9.8	-5.28168E-001	-1.26148E-007	0.00000E+000	-5.28300E-001	1.03929E-003	5	..........a	-327.66
	50	10.2	-5.48231E-001	-1.32123E-007	0.00000E+000	-5.48300E-001	1.01599E-003	5	..........a	-327.66
	52	10.6	-5.68157E-001	-1.38108E-007	0.00000E+000	-5.68300E-001	1.03579E-003	5	..........a	-327.66
	54	11	-5.88163E-001	-1.44193E-007	0.00000E+000	-5.88300E-001	1.04449E-003	5	..........a	-327.66
	56	11.4	-5.88180E-001	-1.34921E-007	0.00000E+000	-5.88300E-001	1.02719E-003	5	..........a	-327.66
	58	11.8	-5.68165E-001	-1.18736E-007	0.00000E+000	-5.68300E-001	1.01619E-003	5	..........a	-327.66
	60	12.2	-5.48201E-001	-1.06480E-007	0.00000E+000	-5.48300E-001	1.04419E-003	5	..........a	-327.66
	62	12.6	-5.28180E-001	-9.60527E-008	0.00000E+000	-5.28300E-001	1.02259E-003	5	..........a	-327.66
	64	13	-5.08179E-001	-8.67455E-008	0.00000E+000	-5.08300E-001	1.02459E-003	5	..........a	-327.66
	66	13.4	-4.88156E-001	-7.81382E-008	0.00000E+000	-4.88300E-001	1.01279E-003	5	..........a	-327.66
	68	13.8	-4.68180E-001	-7.01247E-008	0.00000E+000	-4.68300E-001	1.02629E-003	5	..........a	-327.66
	70	14.2	-4.48192E-001	-6.25046E-008	0.00000E+000	-4.48300E-001	1.02999E-003	5	..........a	-327.66
	72	14.6	-4.28180E-001	-5.52046E-008	0.00000E+000	-4.28300E-001	1.04659E-003	5	..........a	-327.66
	74	15	-4.08219E-001	-4.81700E-008	0.00000E+000	-4.08300E-001	1.01659E-003	5	..........a	-327.66
	76	15.4	-3.88217E-001	-4.14283E-008	0.00000E+000	-3.88300E-001	1.01929E-003	5	..........a	-327.66
	78	15.8	-3.68215E-001	-3.49433E-008	0.00000E+000	-3.68300E-001	1.03889E-003	5	..........a	-327.66
	80	16.2	-3.48210E-001	-2.88239E-008	0.00000E+000	-3.48300E-001	1.05359E-003	5	..........a	-327.66
	82	16.6	-3.28225E-001	-2.31692E-008	0.00000E+000	-3.28300E-001	1.03949E-003	5	..........a	-327.66
	84	17	-3.08263E-001	-1.78712E-008	0.00000E+000	-3.08300E-001	1.04749E-003	5	..........a	-327.66
	86	17.4	-2.88220E-001	-1.30346E-008	0.00000E+000	-2.88300E-001	1.04449E-003	5	..........a	-327.66
	88	17.8	-2.68231E-001	-8.51478E-009	0.00000E+000	-2.68300E-001	1.01979E-003	5	..........a	-327.66
	90	18.2	-2.48217E-001	-4.32915E-009	0.00000E+000	-2.48300E-001	1.02389E-003	5	..........a	-327.66
	92	18.6	-2.28228E-001	-4.40760E-010	0.00000E+000	-2.28300E-001	1.03609E-003	5	..........a	-327.66
	94	19	-2.08260E-001	3.29439E-009	0.00000E+000	-2.08300E-001	1.03009E-003	5	..........a	-327.66
	96	19.4	-1.88244E-001	6.82559E-009	0.00000E+000	-1.88300E-001	1.00799E-003	5	..........a	-327.66
	98	19.8	-1.68237E-001	1.01855E-008	0.00000E+000	-1.68300E-001	1.04739E-003	5	..........a	-327.66
	100	20.2	-1.48281E-001	1.34639E-008	0.00000E+000	-1.48300E-001	1.01859E-003	5	..........a	-327.66
	102	20.6	-1.28292E-001	1.66276E-008	0.00000E+000	-1.28300E-001	1.02269E-003	5	..........a	-327.66
	104	21	-1.08276E-001	1.96642E-008	0.00000E+000	-1.08300E-001	1.03999E-003	5	..........a	-327.66
	106	21.4	-8.83099E-002	2.26122E-008	0.00000E+000	-8.83000E-002	1.03859E-003	5	..........a	-327.66
	108	21.8	-6.82426E-002	2.54985E-008	0.00000E+000	-6.83000E-002	1.03799E-003	5	..........a	-327.66
	110	22.2	-4.83221E-002	2.83008E-008	0.00000E+000	-4.83000E-002	1.02289E-003	5	..........a	-327.66
	112	22.6	-2.82686E-002	3.10899E-008	0.00000E+000	-2.83000E-002	1.00369E-003	5	..........a	-327.66
	114	23	-8.32121E-003	3.38678E-008	0.00000E+000	-8.30000E-003	1.03469E-003	5	..........a	-327.66
	116	23.4	1.17637E-002	3.66554E-008	0.00000E+000	1.17000E-002	9.99292E-004	5	..........a	-327.66
	118	23.8	3.17287E-002	3.95447E-008	0.00000E+000	3.17000E-002	1.02519E-003	5	..........a	-327.66
	120	24.2	5.16981E-002	4.25119E-008	0.00000E+000	5.17000E-002	1.00169E-003	5	..........a	-327.66
	122	24.6	7.17138E-002	4.55796E-008	0.00000E+000	7.17000E-002	1.02829E-003	5	..........a	-327.66
	124	25	9.16853E-002	4.87508E-008	0.00000E+000	9.17000E-002	1.03209E-003	5	..........a	-327.66
	126	25.4	1.11763E-001	5.20528E-008	0.00000E+000	1.11700E-001	1.02969E-003	5	..........a	-327.66
	128	25.8	1.31748E-001	5.54686E-008	0.00000E+000	1.31700E-001	1.02489E-003	5	..........a	-327.66
	130	26.2	1.51679E-001	5.87954E-008	0.00000E+000	1.51700E-001	1.01869E-003	5	..........a	-327.66
	132	26.6	1.71715E-001	6.21866E-008	0.00000E+000	1.71700E-001	1.01459E-003	5	..........a	-327.66
	134	27	1.91757E-001	6.56306E-008	0.00000E+000	1.91700E-001	1.03769E-003	5	..........a	-327.66
	136	27.4	2.11648E-001	6.92821E-008	0.00000E+000	2.11700E-001	1.04779E-003	5	..........a	-327.66
	138	27.8	2.31703E-001	7.34480E-008	0.00000E+000	2.31700E-001	1.00779E-003	5	..........a	-327.66
	140	28.2	2.51682E-001	7.70732E-008	0.00000E+000	2.51700E-001	1.02259E-003	5	..........a	-327.66
	142	28.6	2.71642E-001	8.05673E-008	0.00000E+000	2.71700E-001	1.02089E-003	5	..........a	-327.66
	144	29	2.91671E-001	8.42862E-008	0.00000E+000	2.91700E-001	1.04009E-003	5	..........a	-327.66
	146	29.4	3.11677E-001	8.83463E-008	0.00000E+000	3.11700E-001	1.02479E-003	5	..........a	-327.66
	148	29.8	3.31658E-001	9.26701E-008	0.00000E+000	3.31700E-001	1.05489E-003	5	..........a	-327.66
	150	30.2	3.51640E-001	9.72263E-008	0.00000E+000	3.51700E-001	1.02199E-003	5	..........a	-327.66
	152	30.6	3.71675E-001	1.02009E-007	0.00000E+000	3.71700E-001	1.05159E-003	5	..........a	-327.66
	154	31	3.91692E-001	1.07037E-007	0.00000E+000	3.91700E-001	1.03069E-003	5	..........a	-327.66
	156	31.4	4.11611E-001	1.12176E-007	0.00000E+000	4.11700E-001	1.03499E-003	5	..........a	-327.66
	158	31.8	4.31615E-001	1.17397E-007	0.00000E+000	4.31700E-001	1.02299E-003	5	..........a	-327.66
	160	32.2	4.51628E-001	1.22567E-007	0.00000E+000	4.51700E-001	1.04469E-003	5	..........a	-327.66
	162	32.6	4.71670E-001	1.27732E-007	0.00000E+000	4.71700E-001	1.01449E-003	5	..........a	-327.66
	164	33	4.91604E-001	1.32546E-007	0.00000E+000	4.91700E-001	1.02129E-003	5	..........a	-327.66
	166	33.4	5.11593E-001	1.37107E-007	0.00000E+000	5.11700E-001	1.04599E-003	5	..........a	-327.66
	168	33.8	5.31574E-001	1.41471E-007	0.00000E+000	5.31700E-001	1.01829E-003	5	..........a	-327.66
	170	34.2	5.51636E-001	1.45926E-007	0.00000E+000	5.51700E-001	1.02809E-003	5	..........a	-327.66
	172	34.6	5.71624E-001	1.50483E-007	0.00000E+000	5.71700E-001	1.02219E-003	5	..........a	-327.66
	174	35	5.91628E-001	1.55291E-007	0.00000E+000	5.91700E-001	1.01839E-003	5	..........a	-327.66
	176	35.4	6.11629E-001	1.60318E-007	0.00000E+000	6.11700E-001	1.02689E-003	5	..........a	-327.66
	178	35.8	6.31543E-001	1.65672E-007	0.00000E+000	6.31700E-001	1.05719E-003	5	..........a	-327.66
	180	36.2	6.51568E-001	1.71238E-007	0.00000E+000	6.51700E-001	1.03639E-003	5	..........a	-327.66
	182	36.6	6.71587E-001	1.77015E-007	0.00000E+000	6.71700E-001	1.03669E-003	5	..........a	-327.66
	184	37	6.91531E-001	1.83161E-007	0.00000E+000	6.91700E-001	1.03699E-003	5	..........a	-327.66
	186	37.4	7.11594E-001	1.90076E-007	0.00000E+000	7.11700E-001	1.04599E-003	5	..........a	-327.66
	188	37.8	7.31531E-001	1.97770E-007	0.00000E+000	7.31700E-001	1.02809E-003	5	..........a	-327.66
	190	38.2	7.51609E-001	2.06613E-007	0.00000E+000	7.51700E-001	1.02639E-003	5	..........a	-327.66
	192	38.6	7.71525E-001	2.17478E-007	0.00000E+000	7.71700E-001	1.01689E-003	5	..........a	-327.66
	194	39	7.91580E-001	2.26342E-007	0.00000E+000	7.91700E-001	1.03549E-003	5	..........a	-327.66
	195	39.2	8.01527E-001	2.31087E-007	0.00000E+000	8.01700E-001	1.00969E-003	5	..........a	-327.66
CURVE2	TABLE
	Pt	T	Vf	Im	Vu	Sig	Ach	IERange	Over	Temp
	#	s	V vs. Ref.	A	V	V	V	#	bits	deg C
	196	39.4	7.89931E-001	1.92378E-007	0.00000E+000	7.90000E-001	1.02799E-003	5	..........a	-327.66
	199	40	7.59863E-001	1.42348E-007	0.00000E+000	7.60000E-001	1.05049E-003	5	..........a	-327.66
	202	40.6	7.29883E-001	1.15906E-007	0.00000E+000	7.30000E-001	1.05059E-003	5	..........a	-327.66
	205	41.2	6.99891E-001	9.76652E-008	0.00000E+000	7.00000E-001	1.01669E-003	5	..........a	-327.66
	208	41.8	6.69964E-001	8.33605E-008	0.00000E+000	6.70000E-001	1.03299E-003	5	..........a	-327.66
	211	42.4	6.39894E-001	7.13677E-008	0.00000E+000	6.40000E-001	1.05219E-003	5	..........a	-327.66
	214	43	6.09933E-001	6.09599E-008	0.00000E+000	6.10000E-001	1.03199E-003	5	..........a	-327.66
	217	43.6	5.79992E-001	5.16937E-008	0.00000E+000	5.80000E-001	9.97692E-004	5	..........a	-327.66
	220	44.2	5.50025E-001	4.31668E-008	0.00000E+000	5.50000E-001	1.02429E-003	5	..........a	-327.66
	223	44.8	5.19974E-001	3.52236E-008	0.00000E+000	5.20000E-001	1.02529E-003	5	..........a	-327.66
	226	45.4	4.89937E-001	2.77265E-008	0.00000E+000	4.90000E-001	1.03789E-003	5	..........a	-327.66
	229	46	4.59996E-001	2.04215E-008	0.00000E+000	4.60000E-001	1.01699E-003	5	..........a	-327.66
	232	46.6	4.29940E-001	1.33337E-008	0.00000E+000	4.30000E-001	1.03559E-003	5	..........a	-327.66
	235	47.2	4.00002E-001	6.41115E-009	0.00000E+000	4.00000E-001	1.02719E-003	5	..........a	-327.66
	238	47.8	3.70038E-001	-1.35979E-010	0.00000E+000	3.70000E-001	1.02159E-003	5	..........a	-327.66
	241	48.4	3.40085E-001	-6.31447E-009	0.00000E+000	3.40000E-001	9.96792E-004	5	..........a	-327.66
	244	49	3.10023E-001	-1.19594E-008	0.00000E+000	3.10000E-001	1.05439E-003	5	..........a	-327.66
	247	49.6	2.79960E-001	-1.71397E-008	0.00000E+000	2.80000E-001	1.04489E-003	5	..........a	-327.66
	250	50.2	2.50008E-001	-2.19146E-008	0.00000E+000	2.50000E-001	1.03469E-003	5	..........a	-327.66
	253	50.8	2.20068E-001	-2.62688E-008	0.00000E+000	2.20000E-001	1.00279E-003	5	..........a	-327.66
	256	51.4	1.90124E-001	-3.03403E-008	0.00000E+000	1.90000E-001	1.01239E-003	5	..........a	-327.66
	259	52	1.60085E-001	-3.43191E-008	0.00000E+000	1.60000E-001	1.04429E-003	5	..........a	-327.66
	262	52.6	1.30052E-001	-3.83669E-008	0.00000E+000	1.30000E-001	1.04999E-003	5	..........a	-327.66
[...]
	1035	207.2	7.99839E-001	1.99278E-007	0.00000E+000	8.00000E-001	1.01269E-003	5	..........a	-327.66
CURVE5	TABLE
	Pt	T	Vf	Im	Vu	Sig	Ach	IERange	Over	Temp
	#	s	V vs. Ref.	A	V	V	V	#	bits	deg C
	1036	207.4	7.89962E-001	1.70198E-007	0.00000E+000	7.90000E-001	1.02299E-003	5	..........a	-327.66
	1037	207.6	7.79866E-001	1.52016E-007	0.00000E+000	7.80000E-001	1.01509E-003	5	..........a	-327.66
	1038	207.8	7.69892E-001	1.38472E-007	0.00000E+000	7.70000E-001	1.02829E-003	5	..........a	-327.66
	1039	208	7.59888E-001	1.27857E-007	0.00000E+000	7.60000E-001	1.02539E-003	5	..........a	-327.66
	1040	208.2	7.49981E-001	1.19076E-007	0.00000E+000	7.50000E-001	1.04029E-003	5	..........a	-327.66
	1041	208.4	7.39900E-001	1.11564E-007	0.00000E+000	7.40000E-001	1.00539E-003	5	..........a	-327.66
	1042	208.6	7.29934E-001	1.03824E-007	0.00000E+000	7.30000E-001	1.01779E-003	5	..........a	-327.66
	1043	208.8	7.19891E-001	9.77549E-008	0.00000E+000	7.20000E-001	1.02399E-003	5	..........a	-327.66
	1044	209	7.09983E-001	9.23046E-008	0.00000E+000	7.10000E-001	1.02729E-003	5	..........a	-327.66
	1045	209.2	6.99907E-001	8.73372E-008	0.00000E+000	7.00000E-001	1.03329E-003	5	..........a	-327.66
	1046	209.4	6.89898E-001	8.26993E-008	0.00000E+000	6.90000E-001	1.02639E-003	5	..........a	-327.66
	1047	209.6	6.79964E-001	7.84041E-008	0.00000E+000	6.80000E-001	1.01009E-003	5	..........a	-327.66
	1048	209.8	6.69952E-001	7.43656E-008	0.00000E+000	6.70000E-001	9.96492E-004	5	..........a	-327.66
	1049	210	6.59925E-001	7.05465E-008	0.00000E+000	6.60000E-001	1.00649E-003	5	..........a	-327.66
	1050	210.2	6.49959E-001	6.69556E-008	0.00000E+000	6.50000E-001	1.01589E-003	5	..........a	-327.66
	1051	210.4	6.39877E-001	6.34810E-008	0.00000E+000	6.40000E-001	1.02979E-003	5	..........a	-327.66
	1052	210.6	6.30014E-001	6.01999E-008	0.00000E+000	6.30000E-001	9.93992E-004	5	..........a	-327.66
	1053	210.8	6.19930E-001	5.70045E-008	0.00000E+000	6.20000E-001	1.02179E-003	5	..........a	-327.66
	1054	211	6.09929E-001	5.39120E-008	0.00000E+000	6.10000E-001	9.94992E-004	5	..........a	-327.66
	1055	211.2	5.99960E-001	5.09408E-008	0.00000E+000	6.00000E-001	1.02299E-003	5	..........a	-327.66
	1056	211.4	5.89993E-001	4.81332E-008	0.00000E+000	5.90000E-001	1.01629E-003	5	..........a	-327.66
	1057	211.6	5.79979E-001	4.52891E-008	0.00000E+000	5.80000E-001	1.00939E-003	5	..........a	-327.66
	1058	211.8	5.69959E-001	4.25560E-008	0.00000E+000	5.70000E-001	1.01549E-003	5	..........a	-327.66
	1059	212	5.59938E-001	3.98515E-008	0.00000E+000	5.60000E-001	1.02829E-003	5	..........a	-327.66
	1060	212.2	5.50032E-001	3.72428E-008	0.00000E+000	5.50000E-001	1.03229E-003	5	..........a	-327.66
	1061	212.4	5.39999E-001	3.46657E-008	0.00000E+000	5.40000E-001	1.01549E-003	5	..........a	-327.66
	1062	212.6	5.29966E-001	3.21349E-008	0.00000E+000	5.30000E-001	1.04959E-003	5	..........a	-327.66
	1063	212.8	5.19978E-001	2.96506E-008	0.00000E+000	5.20000E-001	1.04739E-003	5	..........a	-327.66
	1064	213	5.09987E-001	2.71944E-008	0.00000E+000	5.10000E-001	1.02039E-003	5	..........a	-327.66
	1065	213.2	5.00022E-001	2.48025E-008	0.00000E+000	5.00000E-001	1.02199E-003	5	..........a	-327.66
	1066	213.4	4.89936E-001	2.23769E-008	0.00000E+000	4.90000E-001	1.00989E-003	5	..........a	-327.66
	1067	213.6	4.79935E-001	2.00080E-008	0.00000E+000	4.80000E-001	1.03069E-003	5	..........a	-327.66
	1068	213.8	4.70020E-001	1.76417E-008	0.00000E+000	4.70000E-001	9.93392E-004	5	..........a	-327.66
	1069	214	4.60007E-001	1.53390E-008	0.00000E+000	4.60000E-001	1.01129E-003	5	..........a	-327.66
	1070	214.2	4.49923E-001	1.29729E-008	0.00000E+000	4.50000E-001	1.00959E-003	5	..........a	-327.66
	1071	214.4	4.39961E-001	1.06910E-008	0.00000E+000	4.40000E-001	1.04029E-003	5	..........a	-327.66
	1072	214.6	4.29950E-001	8.36297E-009	0.00000E+000	4.30000E-001	1.01399E-003	5	..........a	-327.66
	1073	214.8	4.20012E-001	6.11157E-009	0.00000E+000	4.20000E-001	1.01269E-003	5	..........a	-327.66
	1074	215	4.09965E-001	3.84028E-009	0.00000E+000	4.10000E-001	1.03299E-003	5	..........a	-327.66
	1075	215.2	3.99997E-001	1.61787E-009	0.00000E+000	4.00000E-001	9.93092E-004	5	..........a	-327.66
	1076	215.4	3.90025E-001	-6.63148E-010	0.00000E+000	3.90000E-001	1.01169E-003	5	..........a	-327.66
	1077	215.6	3.80050E-001	-2.78981E-009	0.00000E+000	3.80000E-001	9.94892E-004	5	..........a	-327.66
	1078	215.8	3.70062E-001	-4.90414E-009	0.00000E+000	3.70000E-001	9.83892E-004	5	..........a	-327.66
	1079	216	3.60002E-001	-6.93092E-009	0.00000E+000	3.60000E-001	1.01169E-003	5	..........a	-327.66
	1080	216.2	3.50071E-001	-8.95142E-009	0.00000E+000	3.50000E-001	1.05119E-003	5	..........a	-327.66
	1081	216.4	3.40084E-001	-1.09596E-008	0.00000E+000	3.40000E-001	1.01299E-003	5	..........a	-327.66
	1082	216.6	3.30023E-001	-1.28642E-008	0.00000E+000	3.30000E-001	1.03319E-003	5	..........a	-327.66
	1083	216.8	3.20062E-001	-1.46988E-008	0.00000E+000	3.20000E-001	1.03809E-003	5	..........a	-327.66
	1084	217	3.10051E-001	-1.65518E-008	0.00000E+000	3.10000E-001	1.02349E-003	5	..........a	-327.66
	1085	217.2	3.00069E-001	-1.82850E-008	0.00000E+000	3.00000E-001	9.99692E-004	5	..........a	-327.66
	1086	217.4	2.90050E-001	-2.00674E-008	0.00000E+000	2.90000E-001	1.02389E-003	5	..........a	-327.66
	1087	217.6	2.79979E-001	-2.17617E-008	0.00000E+000	2.80000E-001	1.01719E-003	5	..........a	-327.66
	1088	217.8	2.70063E-001	-2.33964E-008	0.00000E+000	2.70000E-001	1.02049E-003	5	..........a	-327.66
	1089	218	2.60060E-001	-2.49880E-008	0.00000E+000	2.60000E-001	1.00539E-003	5	..........a	-327.66
	1090	218.2	2.50013E-001	-2.65320E-008	0.00000E+000	2.50000E-001	1.03039E-003	5	..........a	-327.66
	1091	218.4	2.40049E-001	-2.80241E-008	0.00000E+000	2.40000E-001	1.04819E-003	5	..........a	-327.66
	1092	218.6	2.30026E-001	-2.94767E-008	0.00000E+000	2.30000E-001	1.02809E-003	5	..........a	-327.66
	1093	218.8	2.20061E-001	-3.09288E-008	0.00000E+000	2.20000E-001	1.00159E-003	5	..........a	-327.66
	1094	219	2.10015E-001	-3.23230E-008	0.00000E+000	2.10000E-001	1.02169E-003	5	..........a	-327.66
	1095	219.2	2.00040E-001	-3.36872E-008	0.00000E+000	2.00000E-001	1.01819E-003	5	..........a	-327.66
	1096	219.4	1.90124E-001	-3.50360E-008	0.00000E+000	1.90000E-001	1.00139E-003	5	..........a	-327.66
	1097	219.6	1.80108E-001	-3.63834E-008	0.00000E+000	1.80000E-001	1.01029E-003	5	..........a	-327.66
	1098	219.8	1.70057E-001	-3.76970E-008	0.00000E+000	1.70000E-001	1.01909E-003	5	..........a	-327.66
	1099	220	1.60052E-001	-3.90043E-008	0.00000E+000	1.60000E-001	1.02019E-003	5	..........a	-327.66
	1100	220.2	1.50080E-001	-4.03271E-008	0.00000E+000	1.50000E-001	1.02989E-003	5	..........a	-327.66
	1101	220.4	1.40134E-001	-4.17240E-008	0.00000E+000	1.40000E-001	1.00519E-003	5	..........a	-327.66
	1102	220.6	1.30055E-001	-4.30317E-008	0.00000E+000	1.30000E-001	1.02619E-003	5	..........a	-327.66
	1103	220.8	1.20105E-001	-4.43729E-008	0.00000E+000	1.20000E-001	1.03449E-003	5	..........a	-327.66
	1104	221	1.10116E-001	-4.56348E-008	0.00000E+000	1.10000E-001	1.03799E-003	5	..........a	-327.66
	1105	221.2	1.00127E-001	-4.68716E-008	0.00000E+000	1.00000E-001	1.01299E-003	5	..........a	-327.66
	1106	221.4	9.00756E-002	-4.80868E-008	0.00000E+000	9.00000E-002	9.98392E-004	5	..........a	-327.66
	1107	221.6	8.00591E-002	-4.92432E-008	0.00000E+000	8.00000E-002	1.01659E-003	5	..........a	-327.66
	1108	221.8	7.00517E-002	-5.03932E-008	0.00000E+000	7.00000E-002	1.02029E-003	5	..........a	-327.66
	1109	222	6.01369E-002	-5.15445E-008	0.00000E+000	6.00000E-002	9.96692E-004	5	..........a	-327.66
	1110	222.2	5.00528E-002	-5.27119E-008	0.00000E+000	5.00000E-002	1.02329E-003	5	..........a	-327.66
	1111	222.4	4.00332E-002	-5.40209E-008	0.00000E+000	4.00000E-002	1.01329E-003	5	..........a	-327.66
	1112	222.6	3.00915E-002	-5.54506E-008	0.00000E+000	3.00000E-002	1.04039E-003	5	..........a	-327.66
	1113	222.8	2.01680E-002	-5.69061E-008	0.00000E+000	2.00000E-002	1.03329E-003	5	..........a	-327.66
	1114	223	1.01056E-002	-5.80460E-008	0.00000E+000	1.00000E-002	1.00359E-003	5	..........a	-327.66
	1115	223.2	3.62416E-005	-5.95931E-008	0.00000E+000	7.45058E-009	1.04259E-003	5	..........a	-327.66
	1116	223.4	-9.88201E-003	-6.09733E-008	0.00000E+000	-1.00000E-002	1.01209E-003	5	..........a	-327.66
	1117	223.6	-1.98902E-002	-6.12869E-008	0.00000E+000	-2.00000E-002	1.01219E-003	5	..........a	-327.66
	1118	223.8	-2.99272E-002	-6.17021E-008	0.00000E+000	-3.00000E-002	1.03129E-003	5	..........a	-327.66
	1119	224	-3.98916E-002	-6.28097E-008	0.00000E+000	-4.00000E-002	1.01149E-003	5	..........a	-327.66
	1120	224.2	-4.99177E-002	-6.39800E-008	0.00000E+000	-5.00000E-002	1.02379E-003	5	..........a	-327.66