File: example_project/raw_outputs/20240424_S_GM0016_HL03_E05_CV50.DTA
EXPLAIN
TAG	CV
TITLE	LABEL	Cyclic Voltammetry	Test &Identifier
DATE	LABEL	4/24/2024	Date
TIME	LABEL	17:49:15	Time
NOTES	NOTES	1	&Notes...

PSTAT	PSTAT	REF600P-43058	Potentiostat
VINIT	POTEN	0.00000E+000	T	Initial &E (V)
VLIMIT1	POTEN	-6.00000E-001	F	Scan Limit &1 (V)
VLIMIT2	POTEN	8.00000E-001	F	Scan Limit &2 (V)
VFINAL	POTEN	0.00000E+000	T	Final &E (V)
SCANRATE	QUANT	4.99999E+001	&Scan Rate (mV/s)
STEPSIZE	QUANT	1.00000E+001	St&ep Size (mV)
CYCLES	IQUANT	4	C&ycles (#)
IMODE	SELECTOR	0	I/E Range &Mode
IRANGE	QUANT	1.00000E-005	&Max Current (mA)
AREA	QUANT	1.00000E+000	Electrode &Area (cm^2)
ELECTRODETYPE	SELECTOR	0	Electrode Type
STRIPPING	TOGGLE	F	Used for Stripping
POLARITY	TOGGLE	F	Signal Polarity
CONDIT	TWOPARAM	F	1.50000E+001	0.00000E+000	Conditionin&g	Time(s)	E(V)
DELAY	TWOPARAM	T	1.00000E+001	0.00000E+000	Init. De&lay	Time(s)	Stab.(mV/s)
EQDELAY	QUANT	1.00000E+001	Equil. &Time (s)
IRCOMP	SELECTOR	0	IRCom&p
PFCOR	QUANT	5.00000E+001	PF Corr. (ohm)
SAMPLINGMODE	SELECTOR	1	Sampling &Mode
OCVCURVE	TABLE	39
	Pt	T	Vf	Vm	Ach	Over	Temp
	#	s	V vs. Ref.	V	V	bits	deg C
	0	0.258333	-1.16910E-001	-1.16910E-001	2.32259E-004	..........a	-327.66
	1	0.516667	-1.16911E-001	-1.16957E-001	2.29192E-004	..........a	-327.66
	2	0.775	-1.16916E-001	-1.16994E-001	2.26059E-004	..........a	-327.66
	3	1.03333	-1.16931E-001	-1.17042E-001	2.22859E-004	..........a	-327.66
	4	1.29167	-1.16958E-001	-1.17086E-001	2.23592E-004	..........a	-327.66
	5	1.55	-1.16994E-001	-1.17128E-001	2.31192E-004	..........a	-327.66
	6	1.80833	-1.17036E-001	-1.17165E-001	2.20592E-004	..........a	-327.66
	7	2.06667	-1.17080E-001	-1.17212E-001	2.39192E-004	..........a	-327.66
	8	2.325	-1.17123E-001	-1.17253E-001	2.30526E-004	..........a	-327.66
	9	2.58333	-1.17165E-001	-1.17287E-001	2.39392E-004	..........a	-327.66
	10	2.84167	-1.17206E-001	-1.17316E-001	2.40459E-004	..........a	-327.66
	11	3.1	-1.17245E-001	-1.17360E-001	2.32259E-004	..........a	-327.66
	12	3.35833	-1.17282E-001	-1.17391E-001	2.34592E-004	..........a	-327.66
	13	3.61667	-1.17318E-001	-1.17433E-001	2.31326E-004	..........a	-327.66
	14	3.875	-1.17354E-001	-1.17463E-001	2.41459E-004	..........a	-327.66
	15	4.13333	-1.17391E-001	-1.17508E-001	2.31459E-004	..........a	-327.66
	16	4.39167	-1.17427E-001	-1.17546E-001	2.41126E-004	..........a	-327.66
	17	4.65	-1.17465E-001	-1.17596E-001	2.26259E-004	..........a	-327.66
	18	4.90833	-1.17505E-001	-1.17625E-001	2.36659E-004	..........a	-327.66
	19	5.16667	-1.17546E-001	-1.17680E-001	2.26459E-004	..........a	-327.66
	20	5.425	-1.17587E-001	-1.17714E-001	2.42792E-004	..........a	-327.66
	21	5.68333	-1.17629E-001	-1.17765E-001	2.42326E-004	..........a	-327.66
	22	5.94167	-1.17672E-001	-1.17808E-001	2.21526E-004	..........a	-327.66
	23	6.2	-1.17716E-001	-1.17860E-001	2.41259E-004	..........a	-327.66
	24	6.45833	-1.17761E-001	-1.17901E-001	2.30659E-004	..........a	-327.66
	25	6.71667	-1.17806E-001	-1.17934E-001	2.33792E-004	..........a	-327.66
	26	6.975	-1.17851E-001	-1.17956E-001	2.28726E-004	..........a	-327.66
	27	7.23333	-1.17891E-001	-1.17992E-001	2.30926E-004	..........a	-327.66
	28	7.49167	-1.17926E-001	-1.18018E-001	2.47126E-004	..........a	-327.66
	29	7.75	-1.17958E-001	-1.18042E-001	2.38459E-004	..........a	-327.66
	30	8.00833	-1.17987E-001	-1.18080E-001	2.30459E-004	..........a	-327.66
	31	8.26667	-1.18016E-001	-1.18105E-001	2.54126E-004	..........a	-327.66
	32	8.525	-1.18045E-001	-1.18143E-001	2.26926E-004	..........a	-327.66
	33	8.78333	-1.18075E-001	-1.18181E-001	2.37459E-004	..........a	-327.66
	34	9.04167	-1.18107E-001	-1.18224E-001	2.24592E-004	..........a	-327.66
	35	9.3	-1.18142E-001	-1.18259E-001	2.42326E-004	..........a	-327.66
	36	9.5583	-1.18180E-001	-1.18292E-001	2.26792E-004	..........a	-327.66
	37	9.8167	-1.18218E-001	-1.18340E-001	2.43059E-004	..........a	-327.66
	38	10.075	-1.18256E-001	-1.18383E-001	2.29126E-004	..........a	-327.66
EOC	QUANT	-0.1182559	Open Circuit (V)
PSTATMODEL	IQUANT	7	Pstat Model
PSTATSECTION	LABEL	REF600P-43058	Pstat Section
PSTATSERIALNO	LABEL	43058	Pstat Serial Number
CTRLMODE	IQUANT	1	Control Mode
ELECTROMETER	IQUANT	0	RE=0 or CS=1
IESTAB	IQUANT	2	I/E Stability
CASPEED	IQUANT	4	Control Amp Speed
CONVENTION	IQUANT	1	Current Convention
ICHRANGE	IQUANT	2	Ich Range
ICHRANGEMODE	TOGGLE	F	Ich Auto Range
ICHOFFSETENABLE	TOGGLE	F	Ich Offset Enable
ICHOFFSET	QUANT	0	Ich Offset (V)
ICHFILTER	IQUANT	2	Ich Filter
VCHRANGE	IQUANT	2	Vch Range
VCHRANGEMODE	TOGGLE	F	Vch Auto Range
VCHOFFSETENABLE	TOGGLE	F	Vch Offset Enable
VCHOFFSET	QUANT	0	Vch Offset (V)
VCHFILTER	IQUANT	2	Vch Filter
ACHRANGE	IQUANT	2	Ach Range
ACHOFFSETENABLE	TOGGLE	F	Ach Offset Enable
ACHOFFSET	QUANT	0	Ach Offset (V)
ACHFILTER	IQUANT	1	Ach Filter
IERANGELOWERLIMIT	IQUANT	1	I/E Range Lower Limit
IERANGEMODE	TOGGLE	T	I/E AutoRange
IERANGE	IQUANT	4	I/E Range
POSFEEDENABLE	TOGGLE	F	Positive Feedback IR Comp
POSFEEDRESISTANCE	QUANT	0	Positive Feedback Resistance (ohm)
ACHSELECT	IQUANT	4	Ach Select
SENSECABLEID	IQUANT	7	Sense Cable ID
PWRCABLEID	IQUANT	7	Power Cable ID
DCCALDATE	LABEL	3/22/2024	DC Calibration Date
ACCALDATE	LABEL	3/22/2024	AC Calibration Date
THERMOSELECT	IQUANT	1	Thermo Select
FRAMEWORKVERSION	LABEL	7.8.4	Framework Version
INSTRUMENTVERSION	LABEL	4.42	Instrument Version
CURVE1	TABLE
	Pt	T	Vf	Im	Vu	Sig	Ach	IERange	Over	Temp
	#	s	V vs. Ref.	A	V	V	V	#	bits	deg C
	0	0.2	-1.18204E-001	5.26126E-010	0.00000E+000	-1.18250E-001	9.89192E-004	5	..........a	-327.66
	2	0.6	-1.38137E-001	-4.36781E-009	0.00000E+000	-1.38250E-001	9.80392E-004	5	..........a	-327.66
	4	1	-1.58211E-001	-7.80284E-009	0.00000E+000	-1.58250E-001	1.01039E-003	5	..........a	-327.66
	6	1.4	-1.78140E-001	-1.07969E-008	0.00000E+000	-1.78250E-001	9.93592E-004	5	..........a	-327.66
	8	1.8	-1.98177E-001	-1.35119E-008	0.00000E+000	-1.98250E-001	9.95792E-004	5	..........a	-327.66
	10	2.2	-2.18158E-001	-1.61055E-008	0.00000E+000	-2.18250E-001	9.93292E-004	5	..........a	-327.66
	12	2.6	-2.38141E-001	-1.86229E-008	0.00000E+000	-2.38250E-001	9.77592E-004	5	..........a	-327.66
	14	3	-2.58081E-001	-2.10863E-008	0.00000E+000	-2.58250E-001	9.92392E-004	5	..........a	-327.66
	16	3.4	-2.78156E-001	-2.34778E-008	0.00000E+000	-2.78250E-001	9.81692E-004	5	..........a	-327.66
	18	3.8	-2.98124E-001	-2.58834E-008	0.00000E+000	-2.98250E-001	9.63292E-004	5	..........a	-327.66
	20	4.2	-3.18174E-001	-2.82879E-008	0.00000E+000	-3.18250E-001	9.81092E-004	5	..........a	-327.66
	22	4.6	-3.38060E-001	-3.07095E-008	0.00000E+000	-3.38250E-001	9.73692E-004	5	..........a	-327.66
	24	5	-3.58198E-001	-3.32293E-008	0.00000E+000	-3.58250E-001	9.92392E-004	5	..........a	-327.66
	26	5.4	-3.78098E-001	-3.57694E-008	0.00000E+000	-3.78250E-001	9.94092E-004	5	..........a	-327.66
	28	5.8	-3.98180E-001	-3.83584E-008	0.00000E+000	-3.98250E-001	9.82692E-004	5	..........a	-327.66
	30	6.2	-4.18037E-001	-4.10130E-008	0.00000E+000	-4.18250E-001	9.98692E-004	5	..........a	-327.66
	32	6.6	-4.38125E-001	-4.36985E-008	0.00000E+000	-4.38250E-001	9.79792E-004	5	..........a	-327.66
	34	7	-4.58069E-001	-4.64248E-008	0.00000E+000	-4.58250E-001	9.74792E-004	5	..........a	-327.66
	36	7.4	-4.78103E-001	-4.91930E-008	0.00000E+000	-4.78250E-001	9.85492E-004	5	..........a	-327.66
	38	7.8	-4.98035E-001	-5.21071E-008	0.00000E+000	-4.98250E-001	9.95592E-004	5	..........a	-327.66
	40	8.2	-5.18133E-001	-5.51498E-008	0.00000E+000	-5.18250E-001	9.89692E-004	5	..........a	-327.66
	42	8.6	-5.38061E-001	-5.83439E-008	0.00000E+000	-5.38250E-001	1.00359E-003	5	..........a	-327.66
	44	9	-5.58138E-001	-6.17563E-008	0.00000E+000	-5.58250E-001	9.82192E-004	5	..........a	-327.66
	46	9.4	-5.78080E-001	-6.53668E-008	0.00000E+000	-5.78250E-001	9.97292E-004	5	..........a	-327.66
	48	9.8	-5.98122E-001	-6.92593E-008	0.00000E+000	-5.98250E-001	9.81292E-004	5	..........a	-327.66
	50	10.2	-5.78080E-001	-5.39891E-008	0.00000E+000	-5.78250E-001	9.92392E-004	5	..........a	-327.66
	52	10.6	-5.58120E-001	-4.53529E-008	0.00000E+000	-5.58250E-001	9.82992E-004	5	..........a	-327.66
	54	11	-5.38056E-001	-3.88882E-008	0.00000E+000	-5.38250E-001	9.80592E-004	5	..........a	-327.66
	56	11.4	-5.18104E-001	-3.36438E-008	0.00000E+000	-5.18250E-001	9.76192E-004	5	..........a	-327.66
	58	11.8	-4.98013E-001	-2.90412E-008	0.00000E+000	-4.98250E-001	9.87292E-004	5	..........a	-327.66
	60	12.2	-4.78118E-001	-2.49786E-008	0.00000E+000	-4.78250E-001	9.96292E-004	5	..........a	-327.66
	62	12.6	-4.58081E-001	-2.12734E-008	0.00000E+000	-4.58250E-001	9.76592E-004	5	..........a	-327.66
	64	13	-4.38220E-001	-1.78562E-008	0.00000E+000	-4.38250E-001	9.88292E-004	5	..........a	-327.66
	66	13.4	-4.18043E-001	-1.46898E-008	0.00000E+000	-4.18250E-001	9.72192E-004	5	..........a	-327.66
	68	13.8	-3.98170E-001	-1.17180E-008	0.00000E+000	-3.98250E-001	9.76092E-004	5	..........a	-327.66
	70	14.2	-3.78112E-001	-8.91988E-009	0.00000E+000	-3.78250E-001	9.77492E-004	5	..........a	-327.66
	72	14.6	-3.58155E-001	-6.30260E-009	0.00000E+000	-3.58250E-001	9.83292E-004	5	..........a	-327.66
	74	15	-3.38070E-001	-3.80086E-009	0.00000E+000	-3.38250E-001	9.96892E-004	5	..........a	-327.66
	76	15.4	-3.18196E-001	-1.42493E-009	0.00000E+000	-3.18250E-001	1.00419E-003	5	..........a	-327.66
	78	15.8	-2.98137E-001	8.68979E-010	0.00000E+000	-2.98250E-001	9.72892E-004	5	..........a	-327.66
	80	16.2	-2.78229E-001	3.06977E-009	0.00000E+000	-2.78250E-001	9.88992E-004	5	..........a	-327.66
	82	16.6	-2.58077E-001	5.15887E-009	0.00000E+000	-2.58250E-001	9.90392E-004	5	..........a	-327.66
	84	17	-2.38173E-001	7.21657E-009	0.00000E+000	-2.38250E-001	1.00009E-003	5	..........a	-327.66
	86	17.4	-2.18167E-001	9.20854E-009	0.00000E+000	-2.18250E-001	9.80992E-004	5	..........a	-327.66
	88	17.8	-1.98221E-001	1.11392E-008	0.00000E+000	-1.98250E-001	9.81492E-004	5	..........a	-327.66
	90	18.2	-1.78187E-001	1.30596E-008	0.00000E+000	-1.78250E-001	9.77792E-004	5	..........a	-327.66
	92	18.6	-1.58185E-001	1.49467E-008	0.00000E+000	-1.58250E-001	9.90892E-004	5	..........a	-327.66
	94	19	-1.38148E-001	1.67908E-008	0.00000E+000	-1.38250E-001	9.84992E-004	5	..........a	-327.66
	96	19.4	-1.18225E-001	1.86306E-008	0.00000E+000	-1.18250E-001	9.76292E-004	5	..........a	-327.66
	98	19.8	-9.81666E-002	2.04459E-008	0.00000E+000	-9.82500E-002	9.89592E-004	5	..........a	-327.66
	100	20.2	-7.82285E-002	2.23103E-008	0.00000E+000	-7.82500E-002	9.91692E-004	5	..........a	-327.66
	102	20.6	-5.81043E-002	2.41562E-008	0.00000E+000	-5.82500E-002	9.95792E-004	5	..........a	-327.66
	104	21	-3.81766E-002	2.59968E-008	0.00000E+000	-3.82500E-002	9.66892E-004	5	..........a	-327.66
	106	21.4	-1.81720E-002	2.78643E-008	0.00000E+000	-1.82500E-002	9.87392E-004	5	..........a	-327.66
	108	21.8	1.80874E-003	2.97452E-008	0.00000E+000	1.75001E-003	9.82992E-004	5	..........a	-327.66
	110	22.2	2.19171E-002	3.16739E-008	0.00000E+000	2.17500E-002	1.01009E-003	5	..........a	-327.66
	112	22.6	4.17689E-002	3.36316E-008	0.00000E+000	4.17500E-002	9.81592E-004	5	..........a	-327.66
	114	23	6.18295E-002	3.56311E-008	0.00000E+000	6.17500E-002	9.63592E-004	5	..........a	-327.66
	116	23.4	8.17775E-002	3.77567E-008	0.00000E+000	8.17500E-002	9.85792E-004	5	..........a	-327.66
	118	23.8	1.01875E-001	3.99463E-008	0.00000E+000	1.01750E-001	9.74592E-004	5	..........a	-327.66
	120	24.2	1.21751E-001	4.22948E-008	0.00000E+000	1.21750E-001	9.93892E-004	5	..........a	-327.66
	122	24.6	1.41917E-001	4.54377E-008	0.00000E+000	1.41750E-001	9.86792E-004	5	..........a	-327.66
	124	25	1.61748E-001	4.89631E-008	0.00000E+000	1.61750E-001	9.95792E-004	5	..........a	-327.66
	126	25.4	1.81867E-001	5.10463E-008	0.00000E+000	1.81750E-001	9.86292E-004	5	..........a	-327.66
	128	25.8	2.01756E-001	5.27314E-008	0.00000E+000	2.01750E-001	9.91592E-004	5	..........a	-327.66
	130	26.2	2.21855E-001	5.51291E-008	0.00000E+000	2.21750E-001	9.86292E-004	5	..........a	-327.66
	132	26.6	2.41770E-001	5.80112E-008	0.00000E+000	2.41750E-001	9.81792E-004	5	..........a	-327.66
	134	27	2.61794E-001	6.11970E-008	0.00000E+000	2.61750E-001	9.84892E-004	5	..........a	-327.66
	136	27.4	2.81682E-001	6.48407E-008	0.00000E+000	2.81750E-001	9.95892E-004	5	..........a	-327.66
	138	27.8	3.01812E-001	6.88576E-008	0.00000E+000	3.01750E-001	1.00919E-003	5	..........a	-327.66
	140	28.2	3.21641E-001	7.32267E-008	0.00000E+000	3.21750E-001	1.00129E-003	5	..........a	-327.66
	142	28.6	3.41801E-001	7.77888E-008	0.00000E+000	3.41750E-001	9.84292E-004	5	..........a	-327.66
	144	29	3.61703E-001	8.25463E-008	0.00000E+000	3.61750E-001	1.01219E-003	5	..........a	-327.66
	146	29.4	3.81832E-001	8.73633E-008	0.00000E+000	3.81750E-001	9.97492E-004	5	..........a	-327.66
	148	29.8	4.01706E-001	9.22622E-008	0.00000E+000	4.01750E-001	9.86192E-004	5	..........a	-327.66
	150	30.2	4.21749E-001	9.72465E-008	0.00000E+000	4.21750E-001	9.88492E-004	5	..........a	-327.66
	152	30.6	4.41665E-001	1.02222E-007	0.00000E+000	4.41750E-001	1.00679E-003	5	..........a	-327.66
	154	31	4.61743E-001	1.07208E-007	0.00000E+000	4.61750E-001	9.74892E-004	5	..........a	-327.66
	156	31.4	4.81647E-001	1.12135E-007	0.00000E+000	4.81750E-001	1.00319E-003	5	..........a	-327.66
	158	31.8	5.01734E-001	1.16957E-007	0.00000E+000	5.01750E-001	9.87492E-004	5	..........a	-327.66
	160	32.2	5.21681E-001	1.21658E-007	0.00000E+000	5.21750E-001	9.86492E-004	5	..........a	-327.66
	162	32.6	5.41733E-001	1.26538E-007	0.00000E+000	5.41750E-001	9.90092E-004	5	..........a	-327.66
	164	33	5.61632E-001	1.31074E-007	0.00000E+000	5.61750E-001	1.00169E-003	5	..........a	-327.66
	166	33.4	5.81750E-001	1.35463E-007	0.00000E+000	5.81750E-001	9.75492E-004	5	..........a	-327.66
	168	33.8	6.01697E-001	1.39815E-007	0.00000E+000	6.01750E-001	1.00049E-003	5	..........a	-327.66
	170	34.2	6.21677E-001	1.44294E-007	0.00000E+000	6.21750E-001	9.92492E-004	5	..........a	-327.66
	172	34.6	6.41607E-001	1.48927E-007	0.00000E+000	6.41750E-001	1.00019E-003	5	..........a	-327.66
	174	35	6.61660E-001	1.53732E-007	0.00000E+000	6.61750E-001	9.92692E-004	5	..........a	-327.66
	176	35.4	6.81625E-001	1.58850E-007	0.00000E+000	6.81750E-001	9.78092E-004	5	..........a	-327.66
	178	35.8	7.01628E-001	1.64309E-007	0.00000E+000	7.01750E-001	9.80392E-004	5	..........a	-327.66
	180	36.2	7.21586E-001	1.70305E-007	0.00000E+000	7.21750E-001	9.80792E-004	5	..........a	-327.66
	182	36.6	7.41646E-001	1.77034E-007	0.00000E+000	7.41750E-001	9.79492E-004	5	..........a	-327.66
	184	37	7.61575E-001	1.84643E-007	0.00000E+000	7.61750E-001	1.00819E-003	5	..........a	-327.66
	186	37.4	7.81643E-001	1.93373E-007	0.00000E+000	7.81750E-001	9.80892E-004	5	..........a	-327.66
	188	37.8	8.01596E-001	2.03263E-007	0.00000E+000	8.01750E-001	9.80392E-004	5	..........a	-327.66
CURVE2	TABLE
	Pt	T	Vf	Im	Vu	Sig	Ach	IERange	Over	Temp
	#	s	V vs. Ref.	A	V	V	V	#	bits	deg C
	189	38	7.89962E-001	1.65407E-007	0.00000E+000	7.90000E-001	1.00429E-003	5	..........a	-327.66
	192	38.6	7.59896E-001	1.18285E-007	0.00000E+000	7.60000E-001	1.00159E-003	5	..........a	-327.66
	195	39.2	7.29840E-001	9.47917E-008	0.00000E+000	7.30000E-001	9.90492E-004	5	..........a	-327.66
	198	39.8	6.99914E-001	7.91979E-008	0.00000E+000	7.00000E-001	1.00269E-003	5	..........a	-327.66
	201	40.4	6.69974E-001	6.72062E-008	0.00000E+000	6.70000E-001	9.89692E-004	5	..........a	-327.66
	204	41	6.39886E-001	5.71845E-008	0.00000E+000	6.40000E-001	1.00109E-003	5	..........a	-327.66
	207	41.6	6.09927E-001	4.84320E-008	0.00000E+000	6.10000E-001	9.80592E-004	5	..........a	-327.66
	210	42.2	5.79984E-001	4.06861E-008	0.00000E+000	5.80000E-001	9.86092E-004	5	..........a	-327.66
	213	42.8	5.50024E-001	3.39103E-008	0.00000E+000	5.50000E-001	9.76792E-004	5	..........a	-327.66
	216	43.4	5.19974E-001	2.76286E-008	0.00000E+000	5.20000E-001	9.97392E-004	5	..........a	-327.66
	219	44	4.89965E-001	2.20219E-008	0.00000E+000	4.90000E-001	9.91692E-004	5	..........a	-327.66
	222	44.6	4.60018E-001	1.69924E-008	0.00000E+000	4.60000E-001	9.84492E-004	5	..........a	-327.66
	225	45.2	4.29966E-001	1.21242E-008	0.00000E+000	4.30000E-001	9.93592E-004	5	..........a	-327.66
	228	45.8	3.99984E-001	7.48138E-009	0.00000E+000	4.00000E-001	9.92292E-004	5	..........a	-327.66
	231	46.4	3.69995E-001	3.06161E-009	0.00000E+000	3.70000E-001	9.87992E-004	5	..........a	-327.66
	234	47	3.40050E-001	-1.19157E-009	0.00000E+000	3.40000E-001	9.92392E-004	5	..........a	-327.66
	237	47.6	3.10073E-001	-5.03612E-009	0.00000E+000	3.10000E-001	1.00349E-003	5	..........a	-327.66
	240	48.2	2.80009E-001	-8.61217E-009	0.00000E+000	2.80000E-001	1.00999E-003	5	..........a	-327.66
	243	48.8	2.49993E-001	-1.19518E-008	0.00000E+000	2.50000E-001	9.94092E-004	5	..........a	-327.66
	246	49.4	2.20003E-001	-1.48758E-008	0.00000E+000	2.20000E-001	9.91092E-004	5	..........a	-327.66
	249	50	1.90104E-001	-1.75233E-008	0.00000E+000	1.90000E-001	1.00119E-003	5	..........a	-327.66
	252	50.6	1.60061E-001	-1.98964E-008	0.00000E+000	1.60000E-001	9.94292E-004	5	..........a	-327.66
	255	51.2	1.30049E-001	-2.20773E-008	0.00000E+000	1.30000E-001	9.96192E-004	5	..........a	-327.66
	258	51.8	1.00125E-001	-2.40602E-008	0.00000E+000	1.00000E-001	1.00289E-003	5	..........a	-327.66
	261	52.4	7.00506E-002	-2.59629E-008	0.00000E+000	7.00000E-002	9.93692E-004	5	..........a	-327.66
	264	53	4.00454E-002	-2.78535E-008	0.00000E+000	4.00000E-002	9.93992E-004	5	..........a	-327.66
	267	53.6	1.01264E-002	-2.97791E-008	0.00000E+000	1.00000E-002	9.90192E-004	5	..........a	-327.66
[...]
	1034	207	7.39909E-001	8.82979E-008	0.00000E+000	7.40000E-001	9.98392E-004	5	..........a	-327.66
	1035	207.2	7.29932E-001	8.23794E-008	0.00000E+000	7.30000E-001	1.01559E-003	5	..........a	-327.66
	1036	207.4	7.19921E-001	7.71907E-008	0.00000E+000	7.20000E-001	9.83092E-004	5	..........a	-327.66
	1037	207.6	7.09989E-001	7.25146E-008	0.00000E+000	7.10000E-001	1.01859E-003	5	..........a	-327.66
	1038	207.8	6.99938E-001	6.82797E-008	0.00000E+000	7.00000E-001	1.00829E-003	5	..........a	-327.66
	1039	208	6.89876E-001	6.43292E-008	0.00000E+000	6.90000E-001	1.01599E-003	5	..........a	-327.66
	1040	208.2	6.79994E-001	6.07180E-008	0.00000E+000	6.80000E-001	1.01049E-003	5	..........a	-327.66
	1041	208.4	6.69985E-001	5.72460E-008	0.00000E+000	6.70000E-001	1.00369E-003	5	..........a	-327.66
	1042	208.6	6.59953E-001	5.40210E-008	0.00000E+000	6.60000E-001	9.97892E-004	5	..........a	-327.66
	1043	208.8	6.49949E-001	5.08781E-008	0.00000E+000	6.50000E-001	1.01629E-003	5	..........a	-327.66
	1044	209	6.39900E-001	4.79337E-008	0.00000E+000	6.40000E-001	1.01479E-003	5	..........a	-327.66
	1045	209.2	6.30029E-001	4.50665E-008	0.00000E+000	6.30000E-001	9.89492E-004	5	..........a	-327.66
	1046	209.4	6.19936E-001	4.22947E-008	0.00000E+000	6.20000E-001	1.00509E-003	5	..........a	-327.66
	1047	209.6	6.09991E-001	3.96142E-008	0.00000E+000	6.10000E-001	9.96492E-004	5	..........a	-327.66
	1048	209.8	6.00008E-001	3.70964E-008	0.00000E+000	6.00000E-001	1.00219E-003	5	..........a	-327.66
	1049	210	5.90022E-001	3.47110E-008	0.00000E+000	5.90000E-001	1.02169E-003	5	..........a	-327.66
	1050	210.2	5.80031E-001	3.24426E-008	0.00000E+000	5.80000E-001	1.00039E-003	5	..........a	-327.66
	1051	210.4	5.69984E-001	3.02990E-008	0.00000E+000	5.70000E-001	1.01609E-003	5	..........a	-327.66
	1052	210.6	5.59948E-001	2.82563E-008	0.00000E+000	5.60000E-001	1.02279E-003	5	..........a	-327.66
	1053	210.8	5.50056E-001	2.62007E-008	0.00000E+000	5.50000E-001	9.94892E-004	5	..........a	-327.66
	1054	211	5.40028E-001	2.41226E-008	0.00000E+000	5.40000E-001	9.95292E-004	5	..........a	-327.66
	1055	211.2	5.29992E-001	2.20858E-008	0.00000E+000	5.30000E-001	9.98392E-004	5	..........a	-327.66
	1056	211.4	5.20002E-001	2.01818E-008	0.00000E+000	5.20000E-001	1.01089E-003	5	..........a	-327.66
	1057	211.6	5.09968E-001	1.83868E-008	0.00000E+000	5.10000E-001	1.00759E-003	5	..........a	-327.66
	1058	211.8	5.00068E-001	1.67080E-008	0.00000E+000	5.00000E-001	9.87592E-004	5	..........a	-327.66
	1059	212	4.89977E-001	1.51588E-008	0.00000E+000	4.90000E-001	9.97992E-004	5	..........a	-327.66
	1060	212.2	4.79927E-001	1.36735E-008	0.00000E+000	4.80000E-001	9.99692E-004	5	..........a	-327.66
	1061	212.4	4.70035E-001	1.21337E-008	0.00000E+000	4.70000E-001	1.01139E-003	5	..........a	-327.66
	1062	212.6	4.60033E-001	1.06036E-008	0.00000E+000	4.60000E-001	9.86892E-004	5	..........a	-327.66
	1063	212.8	4.50059E-001	8.99779E-009	0.00000E+000	4.50000E-001	9.98392E-004	5	..........a	-327.66
	1064	213	4.39947E-001	7.48604E-009	0.00000E+000	4.40000E-001	1.00089E-003	5	..........a	-327.66
	1065	213.2	4.30006E-001	5.93214E-009	0.00000E+000	4.30000E-001	1.00409E-003	5	..........a	-327.66
	1066	213.4	4.20032E-001	4.39464E-009	0.00000E+000	4.20000E-001	9.99092E-004	5	..........a	-327.66
	1067	213.6	4.09942E-001	2.87888E-009	0.00000E+000	4.10000E-001	1.01809E-003	5	..........a	-327.66
	1068	213.8	4.00018E-001	1.41075E-009	0.00000E+000	4.00000E-001	1.01009E-003	5	..........a	-327.66
	1069	214	3.90042E-001	-8.49067E-011	0.00000E+000	3.90000E-001	1.01169E-003	5	..........a	-327.66
	1070	214.2	3.80074E-001	-1.56283E-009	0.00000E+000	3.80000E-001	1.00789E-003	5	..........a	-327.66
	1071	214.4	3.70072E-001	-3.00025E-009	0.00000E+000	3.70000E-001	9.91892E-004	5	..........a	-327.66
	1072	214.6	3.60052E-001	-4.40204E-009	0.00000E+000	3.60000E-001	1.00489E-003	5	..........a	-327.66
	1073	214.8	3.50067E-001	-5.82623E-009	0.00000E+000	3.50000E-001	9.96292E-004	5	..........a	-327.66
	1074	215	3.40093E-001	-7.19160E-009	0.00000E+000	3.40000E-001	9.81392E-004	5	..........a	-327.66
	1075	215.2	3.30054E-001	-8.51668E-009	0.00000E+000	3.30000E-001	1.00739E-003	5	..........a	-327.66
	1076	215.4	3.20073E-001	-9.86046E-009	0.00000E+000	3.20000E-001	1.00309E-003	5	..........a	-327.66
	1077	215.6	3.10064E-001	-1.11973E-008	0.00000E+000	3.10000E-001	1.01509E-003	5	..........a	-327.66
	1078	215.8	3.00092E-001	-1.24610E-008	0.00000E+000	3.00000E-001	9.82292E-004	5	..........a	-327.66
	1079	216	2.90079E-001	-1.36995E-008	0.00000E+000	2.90000E-001	9.87992E-004	5	..........a	-327.66
	1080	216.2	2.80023E-001	-1.49036E-008	0.00000E+000	2.80000E-001	1.00489E-003	5	..........a	-327.66
	1081	216.4	2.70116E-001	-1.61132E-008	0.00000E+000	2.70000E-001	9.92692E-004	5	..........a	-327.66
	1082	216.6	2.60065E-001	-1.72640E-008	0.00000E+000	2.60000E-001	9.88292E-004	5	..........a	-327.66
	1083	216.8	2.50019E-001	-1.83324E-008	0.00000E+000	2.50000E-001	1.00559E-003	5	..........a	-327.66
	1084	217	2.40089E-001	-1.93959E-008	0.00000E+000	2.40000E-001	9.96992E-004	5	..........a	-327.66
	1085	217.2	2.30040E-001	-2.04207E-008	0.00000E+000	2.30000E-001	1.02569E-003	5	..........a	-327.66
	1086	217.4	2.20043E-001	-2.14490E-008	0.00000E+000	2.20000E-001	9.79392E-004	5	..........a	-327.66
	1087	217.6	2.10021E-001	-2.23449E-008	0.00000E+000	2.10000E-001	1.02619E-003	5	..........a	-327.66
	1088	217.8	2.00081E-001	-2.31958E-008	0.00000E+000	2.00000E-001	1.00119E-003	5	..........a	-327.66
	1089	218	1.90136E-001	-2.39819E-008	0.00000E+000	1.90000E-001	9.80292E-004	5	..........a	-327.66
	1090	218.2	1.80124E-001	-2.47128E-008	0.00000E+000	1.80000E-001	1.00329E-003	5	..........a	-327.66
	1091	218.4	1.70091E-001	-2.54091E-008	0.00000E+000	1.70000E-001	1.00049E-003	5	..........a	-327.66
	1092	218.6	1.60092E-001	-2.60473E-008	0.00000E+000	1.60000E-001	1.00719E-003	5	..........a	-327.66
	1093	218.8	1.50085E-001	-2.66158E-008	0.00000E+000	1.50000E-001	1.01829E-003	5	..........a	-327.66
	1094	219	1.40130E-001	-2.71041E-008	0.00000E+000	1.40000E-001	9.95192E-004	5	..........a	-327.66
	1095	219.2	1.30050E-001	-2.76159E-008	0.00000E+000	1.30000E-001	1.00639E-003	5	..........a	-327.66
	1096	219.4	1.20054E-001	-2.80658E-008	0.00000E+000	1.20000E-001	1.00119E-003	5	..........a	-327.66
	1097	219.6	1.10121E-001	-2.85212E-008	0.00000E+000	1.10000E-001	9.91792E-004	5	..........a	-327.66
	1098	219.8	1.00150E-001	-2.89752E-008	0.00000E+000	1.00000E-001	1.00319E-003	5	..........a	-327.66
	1099	220	9.01073E-002	-2.93948E-008	0.00000E+000	9.00000E-002	9.96792E-004	5	..........a	-327.66
	1100	220.2	8.00768E-002	-2.98273E-008	0.00000E+000	8.00000E-002	1.00149E-003	5	..........a	-327.66
	1101	220.4	7.00438E-002	-3.02889E-008	0.00000E+000	7.00000E-002	1.01269E-003	5	..........a	-327.66
	1102	220.6	6.01342E-002	-3.07890E-008	0.00000E+000	6.00000E-002	9.92792E-004	5	..........a	-327.66
	1103	220.8	5.00614E-002	-3.13373E-008	0.00000E+000	5.00000E-002	1.01209E-003	5	..........a	-327.66
	1104	221	4.01602E-002	-3.19627E-008	0.00000E+000	4.00000E-002	1.00149E-003	5	..........a	-327.66
	1105	221.2	3.00495E-002	-3.26281E-008	0.00000E+000	3.00000E-002	1.02499E-003	5	..........a	-327.66
	1106	221.4	2.01510E-002	-3.33052E-008	0.00000E+000	2.00000E-002	9.97892E-004	5	..........a	-327.66
	1107	221.6	1.01279E-002	-3.40909E-008	0.00000E+000	1.00000E-002	9.92292E-004	5	..........a	-327.66
	1108	221.8	5.86917E-005	-3.49321E-008	0.00000E+000	7.45058E-009	9.99792E-004	5	..........a	-327.66
	1109	222	-9.87026E-003	-3.56388E-008	0.00000E+000	-1.00000E-002	1.00069E-003	5	..........a	-327.66
	1110	222.2	-1.98780E-002	-3.55623E-008	0.00000E+000	-2.00000E-002	9.86692E-004	5	..........a	-327.66
	1111	222.4	-2.99080E-002	-3.60801E-008	0.00000E+000	-3.00000E-002	1.00529E-003	5	..........a	-327.66
	1112	222.6	-3.98892E-002	-3.67815E-008	0.00000E+000	-4.00000E-002	9.93592E-004	5	..........a	-327.66
	1113	222.8	-4.99097E-002	-3.74935E-008	0.00000E+000	-5.00000E-002	1.01119E-003	5	..........a	-327.66
	1114	223	-5.98439E-002	-3.83326E-008	0.00000E+000	-6.00000E-002	9.81192E-004	5	..........a	-327.66
	1115	223.2	-6.98826E-002	-3.92005E-008	0.00000E+000	-7.00000E-002	1.00469E-003	5	..........a	-327.66
	1116	223.4	-7.99177E-002	-4.00847E-008	0.00000E+000	-8.00000E-002	9.96292E-004	5	..........a	-327.66
	1117	223.6	-8.98819E-002	-4.10106E-008	0.00000E+000	-9.00000E-002	9.92892E-004	5	..........a	-327.66
	1118	223.8	-9.98740E-002	-4.19581E-008	0.00000E+000	-1.00000E-001	9.85392E-004	5	..........a	-327.66
	1119	224	-1.09954E-001	-4.29111E-008	0.00000E+000	-1.10000E-001	1.01139E-003	5	..........a	-327.66
	1120	224.2	-1.19889E-001	-4.38587E-008	0.00000E+000	-1.20000E-001	1.00299E-003	5	..........a	-327.66