File: example_project/raw_outputs/20240424_ZR_GM0016_HL03_E11_CV50K.DTA
EXPLAIN
TAG	CV
TITLE	LABEL	Cyclic Voltammetry	Test &Identifier
DATE	LABEL	4/24/2024	Date
TIME	LABEL	19:10:59	Time
NOTES	NOTES	1	&Notes...

PSTAT	PSTAT	REF600P-43058	Potentiostat
VINIT	POTEN	0.00000E+000	T	Initial &E (V)
VLIMIT1	POTEN	-6.00000E-001	F	Scan Limit &1 (V)
VLIMIT2	POTEN	8.00000E-001	F	Scan Limit &2 (V)
VFINAL	POTEN	0.00000E+000	T	Final &E (V)
SCANRATE	QUANT	4.99999E+004	&Scan Rate (mV/s)
STEPSIZE	QUANT	1.00000E+001	St&ep Size (mV)
CYCLES	IQUANT	10	C&ycles (#)
IMODE	SELECTOR	0	I/E Range &Mode
IRANGE	QUANT	1.00000E-005	&Max Current (mA)
AREA	QUANT	1.00000E+000	Electrode &Area (cm^2)
ELECTRODETYPE	SELECTOR	0	Electrode Type
STRIPPING	TOGGLE	F	Used for Stripping
POLARITY	TOGGLE	F	Signal Polarity
CONDIT	TWOPARAM	F	1.50000E+001	0.00000E+000	Conditionin&g	Time(s)	E(V)
DELAY	TWOPARAM	T	1.00000E+001	0.00000E+000	Init. De&lay	Time(s)	Stab.(mV/s)
EQDELAY	QUANT	1.00000E+001	Equil. &Time (s)
IRCOMP	SELECTOR	0	IRCom&p
PFCOR	QUANT	5.00000E+001	PF Corr. (ohm)
SAMPLINGMODE	SELECTOR	1	Sampling &Mode
OCVCURVE	TABLE	39
	Pt	T	Vf	Vm	Ach	Over	Temp
	#	s	V vs. Ref.	V	V	bits	deg C
	0	0.258333	1.13672E-001	1.13672E-001	2.40326E-004	..........a	-327.66
	1	0.516667	1.13665E-001	1.13321E-001	2.39326E-004	..........a	-327.66
	2	0.775	1.13623E-001	1.12969E-001	2.45859E-004	..........a	-327.66
	3	1.03333	1.13504E-001	1.12619E-001	2.53792E-004	..........a	-327.66
	4	1.29167	1.13288E-001	1.12265E-001	2.39192E-004	..........a	-327.66
	5	1.55	1.12993E-001	1.11909E-001	2.46792E-004	..........a	-327.66
	6	1.80833	1.12654E-001	1.11560E-001	2.43259E-004	..........a	-327.66
	7	2.06667	1.12299E-001	1.11204E-001	2.39392E-004	..........a	-327.66
	8	2.325	1.11942E-001	1.10853E-001	2.35659E-004	..........a	-327.66
	9	2.58333	1.11587E-001	1.10495E-001	2.39459E-004	..........a	-327.66
	10	2.84167	1.11232E-001	1.10143E-001	2.32926E-004	..........a	-327.66
	11	3.1	1.10878E-001	1.09785E-001	2.32859E-004	..........a	-327.66
	12	3.35833	1.10524E-001	1.09432E-001	2.40459E-004	..........a	-327.66
	13	3.61667	1.10169E-001	1.09084E-001	2.45859E-004	..........a	-327.66
	14	3.875	1.09815E-001	1.08729E-001	2.39726E-004	..........a	-327.66
	15	4.13333	1.09462E-001	1.08380E-001	2.37526E-004	..........a	-327.66
	16	4.39167	1.09109E-001	1.08031E-001	2.53059E-004	..........a	-327.66
	17	4.65	1.08758E-001	1.07677E-001	2.41459E-004	..........a	-327.66
	18	4.90833	1.08407E-001	1.07330E-001	2.43259E-004	..........a	-327.66
	19	5.16667	1.08057E-001	1.06981E-001	2.39992E-004	..........a	-327.66
	20	5.425	1.07707E-001	1.06631E-001	2.54192E-004	..........a	-327.66
	21	5.68333	1.07357E-001	1.06274E-001	2.30259E-004	..........a	-327.66
	22	5.94167	1.07007E-001	1.05939E-001	2.27259E-004	..........a	-327.66
	23	6.2	1.06657E-001	1.05592E-001	2.45726E-004	..........a	-327.66
	24	6.45833	1.06309E-001	1.05252E-001	2.49259E-004	..........a	-327.66
	25	6.71667	1.05964E-001	1.04902E-001	2.43259E-004	..........a	-327.66
	26	6.975	1.05619E-001	1.04560E-001	2.32259E-004	..........a	-327.66
	27	7.23333	1.05275E-001	1.04216E-001	2.57659E-004	..........a	-327.66
	28	7.49167	1.04931E-001	1.03883E-001	2.44459E-004	..........a	-327.66
	29	7.75	1.04588E-001	1.03540E-001	2.41126E-004	..........a	-327.66
	30	8.00833	1.04247E-001	1.03202E-001	2.42926E-004	..........a	-327.66
	31	8.26667	1.03907E-001	1.02867E-001	2.40526E-004	..........a	-327.66
	32	8.525	1.03568E-001	1.02536E-001	2.45392E-004	..........a	-327.66
	33	8.78333	1.03231E-001	1.02202E-001	2.40392E-004	..........a	-327.66
	34	9.04167	1.02895E-001	1.01870E-001	2.33859E-004	..........a	-327.66
	35	9.3	1.02561E-001	1.01539E-001	2.46859E-004	..........a	-327.66
	36	9.5583	1.02228E-001	1.01199E-001	2.29992E-004	..........a	-327.66
	37	9.8167	1.01896E-001	1.00877E-001	2.32726E-004	..........a	-327.66
	38	10.075	1.01563E-001	1.00550E-001	2.38659E-004	..........a	-327.66
EOC	QUANT	0.101563	Open Circuit (V)
PSTATMODEL	IQUANT	7	Pstat Model
PSTATSECTION	LABEL	REF600P-43058	Pstat Section
PSTATSERIALNO	LABEL	43058	Pstat Serial Number
CTRLMODE	IQUANT	1	Control Mode
ELECTROMETER	IQUANT	0	RE=0 or CS=1
IESTAB	IQUANT	2	I/E Stability
CASPEED	IQUANT	4	Control Amp Speed
CONVENTION	IQUANT	1	Current Convention
ICHRANGE	IQUANT	2	Ich Range
ICHRANGEMODE	TOGGLE	F	Ich Auto Range
ICHOFFSETENABLE	TOGGLE	F	Ich Offset Enable
ICHOFFSET	QUANT	0	Ich Offset (V)
ICHFILTER	IQUANT	1	Ich Filter
VCHRANGE	IQUANT	2	Vch Range
VCHRANGEMODE	TOGGLE	F	Vch Auto Range
VCHOFFSETENABLE	TOGGLE	F	Vch Offset Enable
VCHOFFSET	QUANT	0	Vch Offset (V)
VCHFILTER	IQUANT	1	Vch Filter
ACHRANGE	IQUANT	2	Ach Range
ACHOFFSETENABLE	TOGGLE	F	Ach Offset Enable
ACHOFFSET	QUANT	0	Ach Offset (V)
ACHFILTER	IQUANT	1	Ach Filter
IERANGELOWERLIMIT	IQUANT	1	I/E Range Lower Limit
IERANGEMODE	TOGGLE	T	I/E AutoRange
IERANGE	IQUANT	4	I/E Range
POSFEEDENABLE	TOGGLE	F	Positive Feedback IR Comp
POSFEEDRESISTANCE	QUANT	0	Positive Feedback Resistance (ohm)
ACHSELECT	IQUANT	4	Ach Select
SENSECABLEID	IQUANT	7	Sense Cable ID
PWRCABLEID	IQUANT	7	Power Cable ID
DCCALDATE	LABEL	3/22/2024	DC Calibration Date
ACCALDATE	LABEL	3/22/2024	AC Calibration Date
THERMOSELECT	IQUANT	1	Thermo Select
FRAMEWORKVERSION	LABEL	7.8.4	Framework Version
INSTRUMENTVERSION	LABEL	4.42	Instrument Version
CURVE1	TABLE
	Pt	T	Vf	Im	Vu	Sig	Ach	IERange	Over	Temp
	#	s	V vs. Ref.	A	V	V	V	#	bits	deg C
	0	0.0002	1.01747E-001	2.15000E-007	0.00000E+000	1.01550E-001	8.15923E-005	8	..........a	-327.66
	3	0.0008	7.16971E-002	-2.48510E-006	0.00000E+000	7.15500E-002	8.15923E-005	8	..........a	-327.66
	6	0.0014	4.14471E-002	-3.98516E-006	0.00000E+000	4.15500E-002	8.15923E-005	8	..........a	-327.66
	9	0.002	1.16471E-002	-4.98520E-006	0.00000E+000	1.15500E-002	8.15923E-005	8	..........a	-327.66
	12	0.0026	-1.83529E-002	-5.77523E-006	0.00000E+000	-1.84500E-002	8.15923E-005	8	..........a	-327.66
	15	0.0032	-4.84529E-002	-6.37525E-006	0.00000E+000	-4.84500E-002	8.15923E-005	8	..........a	-327.66
	18	0.0038	-7.82529E-002	-6.90527E-006	0.00000E+000	-7.84500E-002	8.15923E-005	8	..........a	-327.66
	21	0.0044	-1.08553E-001	-7.28529E-006	0.00000E+000	-1.08450E-001	8.15923E-005	8	..........a	-327.66
	24	0.005	-1.38453E-001	-7.69530E-006	0.00000E+000	-1.38450E-001	8.15923E-005	8	..........a	-327.66
	27	0.0056	-1.68403E-001	-8.05532E-006	0.00000E+000	-1.68450E-001	8.15923E-005	8	..........a	-327.66
	30	0.0062	-1.98253E-001	-8.35533E-006	0.00000E+000	-1.98450E-001	8.15923E-005	8	..........a	-327.66
	33	0.0068	-2.28353E-001	-8.68534E-006	0.00000E+000	-2.28450E-001	8.15923E-005	8	..........a	-327.66
	36	0.0074	-2.58353E-001	-8.97535E-006	0.00000E+000	-2.58450E-001	8.15923E-005	8	..........a	-327.66
	39	0.008	-2.88253E-001	-9.33536E-006	0.00000E+000	-2.88450E-001	8.15923E-005	8	..........a	-327.66
	42	0.0086	-3.18153E-001	-9.69538E-006	0.00000E+000	-3.18450E-001	8.15923E-005	8	..........a	-327.66
	45	0.0092	-3.48353E-001	-1.00054E-005	0.00000E+000	-3.48450E-001	8.15923E-005	8	..........a	-327.66
	48	0.0098	-3.78153E-001	-1.04354E-005	0.00000E+000	-3.78450E-001	8.15923E-005	8	..........a	-327.66
	51	0.0104	-4.08453E-001	-1.08154E-005	0.00000E+000	-4.08450E-001	8.15923E-005	8	..........a	-327.66
	54	0.011	-4.38253E-001	-1.12154E-005	0.00000E+000	-4.38450E-001	8.15923E-005	8	..........a	-327.66
	57	0.0116	-4.68453E-001	-1.17055E-005	0.00000E+000	-4.68450E-001	8.15923E-005	8	..........a	-327.66
	60	0.0122	-4.98203E-001	-1.21455E-005	0.00000E+000	-4.98450E-001	8.15923E-005	8	..........a	-327.66
	63	0.0128	-5.28353E-001	-1.25355E-005	0.00000E+000	-5.28450E-001	8.15923E-005	8	..........a	-327.66
	66	0.0134	-5.58253E-001	-1.29555E-005	0.00000E+000	-5.58450E-001	8.15923E-005	8	..........a	-327.66
	69	0.014	-5.88353E-001	-1.33555E-005	0.00000E+000	-5.88450E-001	8.15923E-005	8	..........a	-327.66
	72	0.0146	-5.78353E-001	-9.41537E-006	0.00000E+000	-5.78450E-001	8.15923E-005	8	..........a	-327.66
	75	0.0152	-5.48353E-001	-5.81523E-006	0.00000E+000	-5.48450E-001	8.15923E-005	8	..........a	-327.66
	78	0.0158	-5.18153E-001	-3.27513E-006	0.00000E+000	-5.18450E-001	8.15923E-005	8	..........a	-327.66
	81	0.0164	-4.88503E-001	-1.41506E-006	0.00000E+000	-4.88450E-001	8.15923E-005	8	..........a	-327.66
	84	0.017	-4.58253E-001	7.49949E-008	0.00000E+000	-4.58450E-001	8.15923E-005	8	..........a	-327.66
	87	0.0176	-4.28353E-001	1.28504E-006	0.00000E+000	-4.28450E-001	-2.18408E-004	8	..........a	-327.66
	90	0.0182	-3.98353E-001	2.27508E-006	0.00000E+000	-3.98450E-001	-3.18408E-004	8	..........a	-327.66
	93	0.0188	-3.68503E-001	3.10511E-006	0.00000E+000	-3.68450E-001	8.15923E-005	8	..........a	-327.66
	96	0.0194	-3.38303E-001	3.85514E-006	0.00000E+000	-3.38450E-001	8.15923E-005	8	..........a	-327.66
	99	0.02	-3.08453E-001	4.41516E-006	0.00000E+000	-3.08450E-001	8.15923E-005	8	..........a	-327.66
	102	0.0206	-2.78553E-001	5.02518E-006	0.00000E+000	-2.78450E-001	8.15923E-005	8	..........a	-327.66
	105	0.0212	-2.48353E-001	5.50520E-006	0.00000E+000	-2.48450E-001	8.15923E-005	8	..........a	-327.66
	108	0.0218	-2.18353E-001	5.94522E-006	0.00000E+000	-2.18450E-001	8.15923E-005	8	..........a	-327.66
	111	0.0224	-1.88253E-001	6.35524E-006	0.00000E+000	-1.88450E-001	8.15923E-005	8	..........a	-327.66
	114	0.023	-1.58353E-001	6.76525E-006	0.00000E+000	-1.58450E-001	8.15923E-005	8	..........a	-327.66
	117	0.0236	-1.28453E-001	7.10526E-006	0.00000E+000	-1.28450E-001	8.15923E-005	8	..........a	-327.66
	120	0.0242	-9.82529E-002	7.48528E-006	0.00000E+000	-9.84500E-002	8.15923E-005	8	..........a	-327.66
	123	0.0248	-6.84529E-002	7.82529E-006	0.00000E+000	-6.84500E-002	8.15923E-005	8	..........a	-327.66
	126	0.0254	-3.83529E-002	8.21531E-006	0.00000E+000	-3.84500E-002	8.15923E-005	8	..........a	-327.66
	129	0.026	-8.45289E-003	8.57532E-006	0.00000E+000	-8.44999E-003	8.15923E-005	8	..........a	-327.66
	132	0.0266	2.16971E-002	8.90533E-006	0.00000E+000	2.15500E-002	8.15923E-005	8	..........a	-327.66
	135	0.0272	5.14971E-002	9.30535E-006	0.00000E+000	5.15500E-002	8.15923E-005	8	..........a	-327.66
	138	0.0278	8.16471E-002	9.70536E-006	0.00000E+000	8.15500E-002	8.15923E-005	8	..........a	-327.66
	141	0.0284	1.11547E-001	1.01054E-005	0.00000E+000	1.11550E-001	8.15923E-005	8	..........a	-327.66
	144	0.029	1.41847E-001	1.05554E-005	0.00000E+000	1.41550E-001	8.15923E-005	8	..........a	-327.66
	147	0.0296	1.71647E-001	1.09954E-005	0.00000E+000	1.71550E-001	8.15923E-005	8	..........a	-327.66
	150	0.0302	2.01547E-001	1.15154E-005	0.00000E+000	2.01550E-001	8.15923E-005	8	..........a	-327.66
	153	0.0308	2.31647E-001	1.19955E-005	0.00000E+000	2.31550E-001	8.15923E-005	8	..........a	-327.66
	156	0.0314	2.61747E-001	1.24755E-005	0.00000E+000	2.61550E-001	8.15923E-005	8	..........a	-327.66
	159	0.032	2.91397E-001	1.29955E-005	0.00000E+000	2.91550E-001	8.15923E-005	8	..........a	-327.66
	162	0.0326	3.21347E-001	1.35655E-005	0.00000E+000	3.21550E-001	8.15923E-005	8	..........a	-327.66
	165	0.0332	3.51547E-001	1.41455E-005	0.00000E+000	3.51550E-001	8.15923E-005	8	..........a	-327.66
	168	0.0338	3.81747E-001	1.46956E-005	0.00000E+000	3.81550E-001	8.15923E-005	8	..........a	-327.66
	171	0.0344	4.11597E-001	1.52256E-005	0.00000E+000	4.11550E-001	8.15923E-005	8	..........a	-327.66
	174	0.035	4.41447E-001	1.58356E-005	0.00000E+000	4.41550E-001	8.15923E-005	8	..........a	-327.66
	177	0.0356	4.71647E-001	1.63556E-005	0.00000E+000	4.71550E-001	8.15923E-005	8	..........a	-327.66
	180	0.0362	5.01047E-001	1.68856E-005	0.00000E+000	5.01550E-001	8.15923E-005	8	..........a	-327.66
	183	0.0368	5.31447E-001	1.73957E-005	0.00000E+000	5.31550E-001	8.15923E-005	8	..........a	-327.66
	186	0.0374	5.61397E-001	1.77357E-005	0.00000E+000	5.61550E-001	8.15923E-005	8	..........a	-327.66
	189	0.038	5.91547E-001	1.80257E-005	0.00000E+000	5.91550E-001	8.15923E-005	8	..........a	-327.66
	192	0.0386	6.21497E-001	1.83557E-005	0.00000E+000	6.21550E-001	8.15923E-005	8	..........a	-327.66
	195	0.0392	6.51647E-001	1.87357E-005	0.00000E+000	6.51550E-001	8.15923E-005	8	..........a	-327.66
	198	0.0398	6.81347E-001	1.91157E-005	0.00000E+000	6.81550E-001	8.15923E-005	8	..........a	-327.66
	201	0.0404	7.11447E-001	1.93957E-005	0.00000E+000	7.11550E-001	8.15923E-005	8	..........a	-327.66
	204	0.041	7.41647E-001	1.95857E-005	0.00000E+000	7.41550E-001	8.15923E-005	8	..........a	-327.66
	207	0.0416	7.71447E-001	1.96657E-005	0.00000E+000	7.71550E-001	8.15923E-005	8	..........a	-327.66
	210	0.0422	8.01447E-001	1.97257E-005	0.00000E+000	8.01550E-001	8.15923E-005	8	..........a	-327.66
CURVE2	TABLE
	Pt	T	Vf	Im	Vu	Sig	Ach	IERange	Over	Temp
	#	s	V vs. Ref.	A	V	V	V	#	bits	deg C
	211	0.0424	7.89847E-001	1.63456E-005	0.00000E+000	7.90000E-001	8.15923E-005	8	..........a	-327.66
	214	0.043	7.59947E-001	1.06154E-005	0.00000E+000	7.60000E-001	8.15923E-005	8	..........a	-327.66
	217	0.0436	7.30047E-001	6.85525E-006	0.00000E+000	7.30000E-001	8.15923E-005	8	..........a	-327.66
	220	0.0442	7.00047E-001	4.10515E-006	0.00000E+000	7.00000E-001	8.15923E-005	8	..........a	-327.66
	223	0.0448	6.70047E-001	1.94507E-006	0.00000E+000	6.70000E-001	8.15923E-005	8	..........a	-327.66
	226	0.0454	6.39897E-001	1.34997E-007	0.00000E+000	6.40000E-001	8.15923E-005	8	..........a	-327.66
	229	0.046	6.09847E-001	-1.39506E-006	0.00000E+000	6.10000E-001	8.15923E-005	8	..........a	-327.66
	232	0.0466	5.80247E-001	-2.67511E-006	0.00000E+000	5.80000E-001	8.15923E-005	8	..........a	-327.66
	235	0.0472	5.49947E-001	-3.81515E-006	0.00000E+000	5.50000E-001	8.15923E-005	8	..........a	-327.66
	238	0.0478	5.20047E-001	-4.70519E-006	0.00000E+000	5.20000E-001	8.15923E-005	8	..........a	-327.66
	241	0.0484	4.89947E-001	-5.54522E-006	0.00000E+000	4.90000E-001	8.15923E-005	8	..........a	-327.66
	244	0.049	4.60047E-001	-6.37525E-006	0.00000E+000	4.60000E-001	8.15923E-005	8	..........a	-327.66
	247	0.0496	4.30047E-001	-7.15528E-006	0.00000E+000	4.30000E-001	8.15923E-005	8	..........a	-327.66
	250	0.0502	4.00047E-001	-7.95531E-006	0.00000E+000	4.00000E-001	8.15923E-005	8	..........a	-327.66
	253	0.0508	3.69847E-001	-8.72534E-006	0.00000E+000	3.70000E-001	8.15923E-005	8	..........a	-327.66
	256	0.0514	3.40047E-001	-9.53537E-006	0.00000E+000	3.40000E-001	8.15923E-005	8	..........a	-327.66
	259	0.052	3.10047E-001	-1.02854E-005	0.00000E+000	3.10000E-001	8.15923E-005	8	..........a	-327.66
	262	0.0526	2.80047E-001	-1.10654E-005	0.00000E+000	2.80000E-001	8.15923E-005	8	..........a	-327.66
	265	0.0532	2.49947E-001	-1.18555E-005	0.00000E+000	2.50000E-001	8.15923E-005	8	..........a	-327.66
	268	0.0538	2.20197E-001	-1.24955E-005	0.00000E+000	2.20000E-001	8.15923E-005	8	..........a	-327.66
	271	0.0544	1.90047E-001	-1.31255E-005	0.00000E+000	1.90000E-001	8.15923E-005	8	..........a	-327.66
	274	0.055	1.60047E-001	-1.34455E-005	0.00000E+000	1.60000E-001	8.15923E-005	8	..........a	-327.66
	277	0.0556	1.30047E-001	-1.36455E-005	0.00000E+000	1.30000E-001	8.15923E-005	8	..........a	-327.66
	280	0.0562	1.00247E-001	-1.38855E-005	0.00000E+000	1.00000E-001	8.15923E-005	8	..........a	-327.66
	283	0.0568	6.99471E-002	-1.41656E-005	0.00000E+000	7.00000E-002	8.15923E-005	8	..........a	-327.66
	286	0.0574	4.00471E-002	-1.43756E-005	0.00000E+000	4.00000E-002	8.15923E-005	8	..........a	-327.66
	289	0.058	9.94711E-003	-1.45556E-005	0.00000E+000	1.00000E-002	8.15923E-005	8	..........a	-327.66
	292	0.0586	-1.99529E-002	-1.45156E-005	0.00000E+000	-2.00000E-002	8.15923E-005	8	..........a	-327.66
	295	0.0592	-4.99529E-002	-1.44456E-005	0.00000E+000	-5.00000E-002	8.15923E-005	8	..........a	-327.66
	298	0.0598	-8.01529E-002	-1.44356E-005	0.00000E+000	-8.00000E-002	-3.18408E-004	8	..........a	-327.66
	301	0.0604	-1.09853E-001	-1.43956E-005	0.00000E+000	-1.10000E-001	8.15923E-005	8	..........a	-327.66
	304	0.061	-1.39853E-001	-1.43956E-005	0.00000E+000	-1.40000E-001	8.15923E-005	8	..........a	-327.66
	307	0.0616	-1.69953E-001	-1.43356E-005	0.00000E+000	-1.70000E-001	8.15923E-005	8	..........a	-327.66
	310	0.0622	-1.99953E-001	-1.42256E-005	0.00000E+000	-2.00000E-001	8.15923E-005	8	..........a	-327.66
	313	0.0628	-2.29953E-001	-1.40755E-005	0.00000E+000	-2.30000E-001	8.15923E-005	8	..........a	-327.66
	316	0.0634	-2.59753E-001	-1.37755E-005	0.00000E+000	-2.60000E-001	8.15923E-005	8	..........a	-327.66
	319	0.064	-2.90053E-001	-1.37155E-005	0.00000E+000	-2.90000E-001	8.15923E-005	8	..........a	-327.66
	322	0.0646	-3.19853E-001	-1.35355E-005	0.00000E+000	-3.20000E-001	8.15923E-005	8	..........a	-327.66
	325	0.0652	-3.49953E-001	-1.33655E-005	0.00000E+000	-3.50000E-001	8.15923E-005	8	..........a	-327.66
	328	0.0658	-3.79953E-001	-1.32555E-005	0.00000E+000	-3.80000E-001	8.15923E-005	8	..........a	-327.66
	331	0.0664	-4.09953E-001	-1.32255E-005	0.00000E+000	-4.10000E-001	8.15923E-005	8	..........a	-327.66
	334	0.067	-4.39853E-001	-1.31255E-005	0.00000E+000	-4.40000E-001	8.15923E-005	8	..........a	-327.66
	337	0.0676	-4.69953E-001	-1.31555E-005	0.00000E+000	-4.70000E-001	8.15923E-005	8	..........a	-327.66
	340	0.0682	-4.99953E-001	-1.32155E-005	0.00000E+000	-5.00000E-001	8.15923E-005	8	..........a	-327.66
	343	0.0688	-5.29853E-001	-1.32855E-005	0.00000E+000	-5.30000E-001	8.15923E-005	8	..........a	-327.66
	346	0.0694	-5.59753E-001	-1.33955E-005	0.00000E+000	-5.60000E-001	8.15923E-005	8	..........a	-327.66
	349	0.07	-5.89953E-001	-1.35155E-005	0.00000E+000	-5.90000E-001	8.15923E-005	8	..........a	-327.66
	352	0.0706	-5.79753E-001	-9.47537E-006	0.00000E+000	-5.80000E-001	8.15923E-005	8	..........a	-327.66
[...]
	2688	0.5378	3.80147E-001	1.58456E-005	0.00000E+000	3.80000E-001	8.15923E-005	8	..........a	-327.66
	2691	0.5384	4.09847E-001	1.62056E-005	0.00000E+000	4.10000E-001	8.15923E-005	8	..........a	-327.66
	2694	0.539	4.40047E-001	1.66656E-005	0.00000E+000	4.40000E-001	8.15923E-005	8	..........a	-327.66
	2697	0.5396	4.69947E-001	1.69856E-005	0.00000E+000	4.70000E-001	8.15923E-005	8	..........a	-327.66
	2700	0.5402	5.00247E-001	1.72857E-005	0.00000E+000	5.00000E-001	8.15923E-005	8	..........a	-327.66
	2703	0.5408	5.29947E-001	1.74857E-005	0.00000E+000	5.30000E-001	8.15923E-005	8	..........a	-327.66
	2706	0.5414	5.59797E-001	1.77157E-005	0.00000E+000	5.60000E-001	8.15923E-005	8	..........a	-327.66
	2709	0.542	5.89847E-001	1.79057E-005	0.00000E+000	5.90000E-001	8.15923E-005	8	..........a	-327.66
	2712	0.5426	6.19847E-001	1.81057E-005	0.00000E+000	6.20000E-001	8.15923E-005	8	..........a	-327.66
	2715	0.5432	6.49947E-001	1.82757E-005	0.00000E+000	6.50000E-001	8.15923E-005	8	..........a	-327.66
	2718	0.5438	6.80047E-001	1.84657E-005	0.00000E+000	6.80000E-001	8.15923E-005	8	..........a	-327.66
	2721	0.5444	7.09797E-001	1.85357E-005	0.00000E+000	7.10000E-001	8.15923E-005	8	..........a	-327.66
	2724	0.545	7.39947E-001	1.85857E-005	0.00000E+000	7.40000E-001	8.15923E-005	8	..........a	-327.66
	2727	0.5456	7.69947E-001	1.85757E-005	0.00000E+000	7.70000E-001	-2.18408E-004	8	..........a	-327.66
	2730	0.5462	7.99947E-001	1.85857E-005	0.00000E+000	8.00000E-001	8.15923E-005	8	..........a	-327.66
CURVE11	TABLE
	Pt	T	Vf	Im	Vu	Sig	Ach	IERange	Over	Temp
	#	s	V vs. Ref.	A	V	V	V	#	bits	deg C
	2731	0.5464	7.89897E-001	1.56156E-005	0.00000E+000	7.90000E-001	8.15923E-005	8	..........a	-327.66
	2732	0.5466	7.79947E-001	1.34055E-005	0.00000E+000	7.80000E-001	-3.18408E-004	8	..........a	-327.66
	2733	0.5468	7.69947E-001	1.16054E-005	0.00000E+000	7.70000E-001	8.15923E-005	8	..........a	-327.66
	2734	0.547	7.59847E-001	1.00454E-005	0.00000E+000	7.60000E-001	8.15923E-005	8	..........a	-327.66
	2735	0.5472	7.50047E-001	8.71533E-006	0.00000E+000	7.50000E-001	8.15923E-005	8	..........a	-327.66
	2736	0.5474	7.39847E-001	7.50528E-006	0.00000E+000	7.40000E-001	8.15923E-005	8	..........a	-327.66
	2737	0.5476	7.29947E-001	6.47524E-006	0.00000E+000	7.30000E-001	8.15923E-005	8	..........a	-327.66
	2738	0.5478	7.19847E-001	5.49520E-006	0.00000E+000	7.20000E-001	8.15923E-005	8	..........a	-327.66
	2739	0.548	7.09847E-001	4.59517E-006	0.00000E+000	7.10000E-001	8.15923E-005	8	..........a	-327.66
	2740	0.5482	6.99947E-001	3.81514E-006	0.00000E+000	7.00000E-001	8.15923E-005	8	..........a	-327.66
	2741	0.5484	6.89947E-001	3.00511E-006	0.00000E+000	6.90000E-001	8.15923E-005	8	..........a	-327.66
	2742	0.5486	6.79747E-001	2.31508E-006	0.00000E+000	6.80000E-001	8.15923E-005	8	..........a	-327.66
	2743	0.5488	6.69897E-001	1.65506E-006	0.00000E+000	6.70000E-001	8.15923E-005	8	..........a	-327.66
	2744	0.549	6.60147E-001	1.03503E-006	0.00000E+000	6.60000E-001	8.15923E-005	8	..........a	-327.66
	2745	0.5492	6.49847E-001	4.45009E-007	0.00000E+000	6.50000E-001	8.15923E-005	8	..........a	-327.66
	2746	0.5494	6.39947E-001	-5.50101E-008	0.00000E+000	6.40000E-001	8.15923E-005	8	..........a	-327.66
	2747	0.5496	6.29997E-001	-5.95031E-007	0.00000E+000	6.30000E-001	8.15923E-005	8	..........a	-327.66
	2748	0.5498	6.19747E-001	-1.05505E-006	0.00000E+000	6.20000E-001	8.15923E-005	8	..........a	-327.66
	2749	0.55	6.09947E-001	-1.51507E-006	0.00000E+000	6.10000E-001	8.15923E-005	8	..........a	-327.66
	2750	0.5502	5.99947E-001	-1.93508E-006	0.00000E+000	6.00000E-001	8.15923E-005	8	..........a	-327.66
	2751	0.5504	5.90047E-001	-2.31510E-006	0.00000E+000	5.90000E-001	8.15923E-005	8	..........a	-327.66
	2752	0.5506	5.79947E-001	-2.81512E-006	0.00000E+000	5.80000E-001	8.15923E-005	8	..........a	-327.66
	2753	0.5508	5.70047E-001	-3.13513E-006	0.00000E+000	5.70000E-001	8.15923E-005	8	..........a	-327.66
	2754	0.551	5.60047E-001	-3.41514E-006	0.00000E+000	5.60000E-001	8.15923E-005	8	..........a	-327.66
	2755	0.5512	5.49947E-001	-3.81515E-006	0.00000E+000	5.50000E-001	8.15923E-005	8	..........a	-327.66
	2756	0.5514	5.40047E-001	-4.15517E-006	0.00000E+000	5.40000E-001	8.15923E-005	8	..........a	-327.66
	2757	0.5516	5.30147E-001	-4.47518E-006	0.00000E+000	5.30000E-001	8.15923E-005	8	..........a	-327.66
	2758	0.5518	5.20147E-001	-4.75519E-006	0.00000E+000	5.20000E-001	8.15923E-005	8	..........a	-327.66
	2759	0.552	5.09847E-001	-5.02520E-006	0.00000E+000	5.10000E-001	8.15923E-005	8	..........a	-327.66
	2760	0.5522	5.00147E-001	-5.39521E-006	0.00000E+000	5.00000E-001	8.15923E-005	8	..........a	-327.66
	2761	0.5524	4.90047E-001	-5.67523E-006	0.00000E+000	4.90000E-001	8.15923E-005	8	..........a	-327.66
	2762	0.5526	4.80047E-001	-5.94524E-006	0.00000E+000	4.80000E-001	8.15923E-005	8	..........a	-327.66
	2763	0.5528	4.70147E-001	-6.24525E-006	0.00000E+000	4.70000E-001	8.15923E-005	8	..........a	-327.66
	2764	0.553	4.60147E-001	-6.52526E-006	0.00000E+000	4.60000E-001	8.15923E-005	8	..........a	-327.66
	2765	0.5532	4.49947E-001	-6.83527E-006	0.00000E+000	4.50000E-001	8.15923E-005	8	..........a	-327.66
	2766	0.5534	4.39847E-001	-7.13528E-006	0.00000E+000	4.40000E-001	8.15923E-005	8	..........a	-327.66
	2767	0.5536	4.29847E-001	-7.40529E-006	0.00000E+000	4.30000E-001	8.15923E-005	8	..........a	-327.66
	2768	0.5538	4.20097E-001	-7.69530E-006	0.00000E+000	4.20000E-001	8.15923E-005	8	..........a	-327.66
	2769	0.554	4.10047E-001	-7.97531E-006	0.00000E+000	4.10000E-001	-1.18408E-004	8	..........a	-327.66
	2770	0.5542	4.00147E-001	-8.19532E-006	0.00000E+000	4.00000E-001	8.15923E-005	8	..........a	-327.66
	2771	0.5544	3.90047E-001	-8.47533E-006	0.00000E+000	3.90000E-001	8.15923E-005	8	..........a	-327.66
	2772	0.5546	3.80247E-001	-8.64534E-006	0.00000E+000	3.80000E-001	8.15923E-005	8	..........a	-327.66
	2773	0.5548	3.70047E-001	-8.95535E-006	0.00000E+000	3.70000E-001	8.15923E-005	8	..........a	-327.66
	2774	0.555	3.59947E-001	-9.23536E-006	0.00000E+000	3.60000E-001	-2.18408E-004	8	..........a	-327.66
	2775	0.5552	3.50147E-001	-9.45537E-006	0.00000E+000	3.50000E-001	8.15923E-005	8	..........a	-327.66
	2776	0.5554	3.40047E-001	-9.73538E-006	0.00000E+000	3.40000E-001	-4.18408E-004	8	..........a	-327.66
	2777	0.5556	3.30047E-001	-9.92539E-006	0.00000E+000	3.30000E-001	8.15923E-005	8	..........a	-327.66
	2778	0.5558	3.19947E-001	-1.02754E-005	0.00000E+000	3.20000E-001	8.15923E-005	8	..........a	-327.66
	2779	0.556	3.10047E-001	-1.05254E-005	0.00000E+000	3.10000E-001	8.15923E-005	8	..........a	-327.66
	2780	0.5562	3.00047E-001	-1.07054E-005	0.00000E+000	3.00000E-001	8.15923E-005	8	..........a	-327.66
	2781	0.5564	2.89947E-001	-1.09354E-005	0.00000E+000	2.90000E-001	8.15923E-005	8	..........a	-327.66
	2782	0.5566	2.80047E-001	-1.11854E-005	0.00000E+000	2.80000E-001	8.15923E-005	8	..........a	-327.66
	2783	0.5568	2.70047E-001	-1.14754E-005	0.00000E+000	2.70000E-001	8.15923E-005	8	..........a	-327.66
	2784	0.557	2.60047E-001	-1.16455E-005	0.00000E+000	2.60000E-001	8.15923E-005	8	..........a	-327.66
	2785	0.5572	2.49947E-001	-1.19055E-005	0.00000E+000	2.50000E-001	8.15923E-005	8	..........a	-327.66
	2786	0.5574	2.39947E-001	-1.21055E-005	0.00000E+000	2.40000E-001	8.15923E-005	8	..........a	-327.66
	2787	0.5576	2.30147E-001	-1.22755E-005	0.00000E+000	2.30000E-001	-2.18408E-004	8	..........a	-327.66
	2788	0.5578	2.20197E-001	-1.24255E-005	0.00000E+000	2.20000E-001	8.15923E-005	8	..........a	-327.66
	2789	0.558	2.09947E-001	-1.26155E-005	0.00000E+000	2.10000E-001	8.15923E-005	8	..........a	-327.66
	2790	0.5582	2.00047E-001	-1.27855E-005	0.00000E+000	2.00000E-001	8.15923E-005	8	..........a	-327.66
	2791	0.5584	1.90047E-001	-1.28855E-005	0.00000E+000	1.90000E-001	-2.18408E-004	8	..........a	-327.66
	2792	0.5586	1.80147E-001	-1.30655E-005	0.00000E+000	1.80000E-001	8.15923E-005	8	..........a	-327.66
	2793	0.5588	1.70147E-001	-1.31955E-005	0.00000E+000	1.70000E-001	8.15923E-005	8	..........a	-327.66
	2794	0.559	1.60147E-001	-1.32755E-005	0.00000E+000	1.60000E-001	8.15923E-005	8	..........a	-327.66
	2795	0.5592	1.50147E-001	-1.34155E-005	0.00000E+000	1.50000E-001	-2.18408E-004	8	..........a	-327.66
	2796	0.5594	1.40047E-001	-1.35355E-005	0.00000E+000	1.40000E-001	-3.18408E-004	8	..........a	-327.66
	2797	0.5596	1.30047E-001	-1.36355E-005	0.00000E+000	1.30000E-001	8.15923E-005	8	..........a	-327.66
	2798	0.5598	1.20147E-001	-1.37355E-005	0.00000E+000	1.20000E-001	8.15923E-005	8	..........a	-327.66
	2799	0.56	1.10047E-001	-1.38555E-005	0.00000E+000	1.10000E-001	8.15923E-005	8	..........a	-327.66
	2800	0.5602	9.99471E-002	-1.38855E-005	0.00000E+000	1.00000E-001	8.15923E-005	8	..........a	-327.66