File: example_project/raw_outputs/20240424_O_GM0016_HL03_E04_CV50.DTA
EXPLAIN
TAG	CV
TITLE	LABEL	Cyclic Voltammetry	Test &Identifier
DATE	LABEL	4/24/2024	Date
TIME	LABEL	17:32:48	Time
NOTES	NOTES	1	&Notes...

PSTAT	PSTAT	REF600P-43058	Potentiostat
VINIT	POTEN	0.00000E+000	T	Initial &E (V)
VLIMIT1	POTEN	-6.00000E-001	F	Scan Limit &1 (V)
VLIMIT2	POTEN	8.00000E-001	F	Scan Limit &2 (V)
VFINAL	POTEN	0.00000E+000	T	Final &E (V)
SCANRATE	QUANT	4.99999E+001	&Scan Rate (mV/s)
STEPSIZE	QUANT	1.00000E+001	St&ep Size (mV)
CYCLES	IQUANT	4	C&ycles (#)
IMODE	SELECTOR	0	I/E Range &Mode
IRANGE	QUANT	1.00000E-005	&Max Current (mA)
AREA	QUANT	1.00000E+000	Electrode &Area (cm^2)
ELECTRODETYPE	SELECTOR	0	Electrode Type
STRIPPING	TOGGLE	F	Used for Stripping
POLARITY	TOGGLE	F	Signal Polarity
CONDIT	TWOPARAM	F	1.50000E+001	0.00000E+000	Conditionin&g	Time(s)	E(V)
DELAY	TWOPARAM	T	1.00000E+001	0.00000E+000	Init. De&lay	Time(s)	Stab.(mV/s)
EQDELAY	QUANT	1.00000E+001	Equil. &Time (s)
IRCOMP	SELECTOR	0	IRCom&p
PFCOR	QUANT	5.00000E+001	PF Corr. (ohm)
SAMPLINGMODE	SELECTOR	1	Sampling &Mode
OCVCURVE	TABLE	39
	Pt	T	Vf	Vm	Ach	Over	Temp
	#	s	V vs. Ref.	V	V	bits	deg C
	0	0.258333	-1.54465E-001	-1.54465E-001	2.13726E-004	..........a	-327.66
	1	0.516667	-1.54466E-001	-1.54500E-001	2.33126E-004	..........a	-327.66
	2	0.775	-1.54470E-001	-1.54542E-001	2.04926E-004	..........a	-327.66
	3	1.03333	-1.54483E-001	-1.54580E-001	2.26859E-004	..........a	-327.66
	4	1.29167	-1.54506E-001	-1.54625E-001	2.10792E-004	..........a	-327.66
	5	1.55	-1.54539E-001	-1.54661E-001	2.29526E-004	..........a	-327.66
	6	1.80833	-1.54578E-001	-1.54715E-001	2.09926E-004	..........a	-327.66
	7	2.06667	-1.54620E-001	-1.54747E-001	2.24859E-004	..........a	-327.66
	8	2.325	-1.54663E-001	-1.54817E-001	2.05459E-004	..........a	-327.66
	9	2.58333	-1.54708E-001	-1.54856E-001	2.10659E-004	..........a	-327.66
	10	2.84167	-1.54755E-001	-1.54902E-001	2.29726E-004	..........a	-327.66
	11	3.1	-1.54804E-001	-1.54960E-001	2.20792E-004	..........a	-327.66
	12	3.35833	-1.54853E-001	-1.55001E-001	2.08926E-004	..........a	-327.66
	13	3.61667	-1.54902E-001	-1.55050E-001	2.34059E-004	..........a	-327.66
	14	3.875	-1.54951E-001	-1.55101E-001	2.12326E-004	..........a	-327.66
	15	4.13333	-1.54999E-001	-1.55151E-001	2.16859E-004	..........a	-327.66
	16	4.39167	-1.55048E-001	-1.55203E-001	2.13659E-004	..........a	-327.66
	17	4.65	-1.55098E-001	-1.55252E-001	2.10459E-004	..........a	-327.66
	18	4.90833	-1.55148E-001	-1.55305E-001	2.31326E-004	..........a	-327.66
	19	5.16667	-1.55199E-001	-1.55361E-001	2.23326E-004	..........a	-327.66
	20	5.425	-1.55250E-001	-1.55408E-001	2.13392E-004	..........a	-327.66
	21	5.68333	-1.55302E-001	-1.55462E-001	2.24926E-004	..........a	-327.66
	22	5.94167	-1.55354E-001	-1.55518E-001	2.14859E-004	..........a	-327.66
	23	6.2	-1.55407E-001	-1.55564E-001	2.07326E-004	..........a	-327.66
	24	6.45833	-1.55459E-001	-1.55617E-001	2.23992E-004	..........a	-327.66
	25	6.71667	-1.55511E-001	-1.55674E-001	2.24526E-004	..........a	-327.66
	26	6.975	-1.55562E-001	-1.55716E-001	2.22792E-004	..........a	-327.66
	27	7.23333	-1.55614E-001	-1.55771E-001	2.21459E-004	..........a	-327.66
	28	7.49167	-1.55665E-001	-1.55825E-001	2.10792E-004	..........a	-327.66
	29	7.75	-1.55716E-001	-1.55867E-001	2.19726E-004	..........a	-327.66
	30	8.00833	-1.55767E-001	-1.55924E-001	2.15726E-004	..........a	-327.66
	31	8.26667	-1.55817E-001	-1.55969E-001	2.12392E-004	..........a	-327.66
	32	8.525	-1.55867E-001	-1.56017E-001	2.28259E-004	..........a	-327.66
	33	8.78333	-1.55917E-001	-1.56068E-001	2.19592E-004	..........a	-327.66
	34	9.04167	-1.55966E-001	-1.56108E-001	2.24126E-004	..........a	-327.66
	35	9.3	-1.56014E-001	-1.56156E-001	2.18992E-004	..........a	-327.66
	36	9.5583	-1.56060E-001	-1.56187E-001	2.25259E-004	..........a	-327.66
	37	9.8167	-1.56105E-001	-1.56237E-001	2.18326E-004	..........a	-327.66
	38	10.075	-1.56148E-001	-1.56271E-001	2.29459E-004	..........a	-327.66
EOC	QUANT	-0.1561476	Open Circuit (V)
PSTATMODEL	IQUANT	7	Pstat Model
PSTATSECTION	LABEL	REF600P-43058	Pstat Section
PSTATSERIALNO	LABEL	43058	Pstat Serial Number
CTRLMODE	IQUANT	1	Control Mode
ELECTROMETER	IQUANT	0	RE=0 or CS=1
IESTAB	IQUANT	2	I/E Stability
CASPEED	IQUANT	4	Control Amp Speed
CONVENTION	IQUANT	1	Current Convention
ICHRANGE	IQUANT	2	Ich Range
ICHRANGEMODE	TOGGLE	F	Ich Auto Range
ICHOFFSETENABLE	TOGGLE	F	Ich Offset Enable
ICHOFFSET	QUANT	0	Ich Offset (V)
ICHFILTER	IQUANT	2	Ich Filter
VCHRANGE	IQUANT	2	Vch Range
VCHRANGEMODE	TOGGLE	F	Vch Auto Range
VCHOFFSETENABLE	TOGGLE	F	Vch Offset Enable
VCHOFFSET	QUANT	0	Vch Offset (V)
VCHFILTER	IQUANT	2	Vch Filter
ACHRANGE	IQUANT	2	Ach Range
ACHOFFSETENABLE	TOGGLE	F	Ach Offset Enable
ACHOFFSET	QUANT	0	Ach Offset (V)
ACHFILTER	IQUANT	1	Ach Filter
IERANGELOWERLIMIT	IQUANT	1	I/E Range Lower Limit
IERANGEMODE	TOGGLE	T	I/E AutoRange
IERANGE	IQUANT	4	I/E Range
POSFEEDENABLE	TOGGLE	F	Positive Feedback IR Comp
POSFEEDRESISTANCE	QUANT	0	Positive Feedback Resistance (ohm)
ACHSELECT	IQUANT	4	Ach Select
SENSECABLEID	IQUANT	7	Sense Cable ID
PWRCABLEID	IQUANT	7	Power Cable ID
DCCALDATE	LABEL	3/22/2024	DC Calibration Date
ACCALDATE	LABEL	3/22/2024	AC Calibration Date
THERMOSELECT	IQUANT	1	Thermo Select
FRAMEWORKVERSION	LABEL	7.8.4	Framework Version
INSTRUMENTVERSION	LABEL	4.42	Instrument Version
CURVE1	TABLE
	Pt	T	Vf	Im	Vu	Sig	Ach	IERange	Over	Temp
	#	s	V vs. Ref.	A	V	V	V	#	bits	deg C
	0	0.2	-1.56132E-001	4.29012E-010	0.00000E+000	-1.56150E-001	9.64392E-004	5	..........a	-327.66
	2	0.6	-1.76118E-001	-3.23711E-009	0.00000E+000	-1.76150E-001	9.76492E-004	5	..........a	-327.66
	4	1	-1.96122E-001	-5.81849E-009	0.00000E+000	-1.96150E-001	9.80992E-004	5	..........a	-327.66
	6	1.4	-2.15977E-001	-8.16054E-009	0.00000E+000	-2.16150E-001	9.60892E-004	5	..........a	-327.66
	8	1.8	-2.36077E-001	-1.04238E-008	0.00000E+000	-2.36150E-001	9.57792E-004	5	..........a	-327.66
	10	2.2	-2.56091E-001	-1.25436E-008	0.00000E+000	-2.56150E-001	9.54192E-004	5	..........a	-327.66
	12	2.6	-2.76062E-001	-1.46578E-008	0.00000E+000	-2.76150E-001	9.68492E-004	5	..........a	-327.66
	14	3	-2.96071E-001	-1.67184E-008	0.00000E+000	-2.96150E-001	9.69592E-004	5	..........a	-327.66
	16	3.4	-3.16068E-001	-1.87623E-008	0.00000E+000	-3.16150E-001	9.66792E-004	5	..........a	-327.66
	18	3.8	-3.36073E-001	-2.07933E-008	0.00000E+000	-3.36150E-001	9.71792E-004	5	..........a	-327.66
	20	4.2	-3.56075E-001	-2.27503E-008	0.00000E+000	-3.56150E-001	9.54892E-004	5	..........a	-327.66
	22	4.6	-3.76044E-001	-2.47121E-008	0.00000E+000	-3.76150E-001	9.64092E-004	5	..........a	-327.66
	24	5	-3.96071E-001	-2.66551E-008	0.00000E+000	-3.96150E-001	9.76092E-004	5	..........a	-327.66
	26	5.4	-4.16033E-001	-2.86055E-008	0.00000E+000	-4.16150E-001	9.78192E-004	5	..........a	-327.66
	28	5.8	-4.36048E-001	-3.05169E-008	0.00000E+000	-4.36150E-001	9.68492E-004	5	..........a	-327.66
	30	6.2	-4.56047E-001	-3.24208E-008	0.00000E+000	-4.56150E-001	9.67392E-004	5	..........a	-327.66
	32	6.6	-4.75987E-001	-3.43154E-008	0.00000E+000	-4.76150E-001	9.78392E-004	5	..........a	-327.66
	34	7	-4.95995E-001	-3.62533E-008	0.00000E+000	-4.96150E-001	9.63492E-004	5	..........a	-327.66
	36	7.4	-5.16017E-001	-3.82052E-008	0.00000E+000	-5.16150E-001	9.67192E-004	5	..........a	-327.66
	38	7.8	-5.36027E-001	-4.02419E-008	0.00000E+000	-5.36150E-001	9.84992E-004	5	..........a	-327.66
	40	8.2	-5.56018E-001	-4.24137E-008	0.00000E+000	-5.56150E-001	9.66592E-004	5	..........a	-327.66
	42	8.6	-5.76018E-001	-4.47293E-008	0.00000E+000	-5.76150E-001	9.72892E-004	5	..........a	-327.66
	44	9	-5.96015E-001	-4.73491E-008	0.00000E+000	-5.96150E-001	9.60892E-004	5	..........a	-327.66
	46	9.4	-5.76016E-001	-3.63306E-008	0.00000E+000	-5.76150E-001	9.75392E-004	5	..........a	-327.66
	48	9.8	-5.56025E-001	-3.06854E-008	0.00000E+000	-5.56150E-001	9.61292E-004	5	..........a	-327.66
	50	10.2	-5.36047E-001	-2.64685E-008	0.00000E+000	-5.36150E-001	9.83092E-004	5	..........a	-327.66
	52	10.6	-5.16047E-001	-2.30494E-008	0.00000E+000	-5.16150E-001	9.82292E-004	5	..........a	-327.66
	54	11	-4.95935E-001	-2.00211E-008	0.00000E+000	-4.96150E-001	9.73292E-004	5	..........a	-327.66
	56	11.4	-4.76013E-001	-1.73241E-008	0.00000E+000	-4.76150E-001	9.77692E-004	5	..........a	-327.66
	58	11.8	-4.56005E-001	-1.47878E-008	0.00000E+000	-4.56150E-001	9.68392E-004	5	..........a	-327.66
	60	12.2	-4.36038E-001	-1.24253E-008	0.00000E+000	-4.36150E-001	9.74792E-004	5	..........a	-327.66
	62	12.6	-4.16023E-001	-1.01890E-008	0.00000E+000	-4.16150E-001	9.65492E-004	5	..........a	-327.66
	64	13	-3.96038E-001	-8.03952E-009	0.00000E+000	-3.96150E-001	9.48892E-004	5	..........a	-327.66
	66	13.4	-3.76074E-001	-5.92037E-009	0.00000E+000	-3.76150E-001	9.70592E-004	5	..........a	-327.66
	68	13.8	-3.56105E-001	-3.90587E-009	0.00000E+000	-3.56150E-001	9.75892E-004	5	..........a	-327.66
	70	14.2	-3.36104E-001	-1.95740E-009	0.00000E+000	-3.36150E-001	9.74092E-004	5	..........a	-327.66
	72	14.6	-3.16074E-001	-1.06667E-010	0.00000E+000	-3.16150E-001	9.62692E-004	5	..........a	-327.66
	74	15	-2.96077E-001	1.77514E-009	0.00000E+000	-2.96150E-001	9.78292E-004	5	..........a	-327.66
	76	15.4	-2.76085E-001	3.56950E-009	0.00000E+000	-2.76150E-001	9.81092E-004	5	..........a	-327.66
	78	15.8	-2.56106E-001	5.28819E-009	0.00000E+000	-2.56150E-001	9.82892E-004	5	..........a	-327.66
	80	16.2	-2.36060E-001	7.00706E-009	0.00000E+000	-2.36150E-001	9.56292E-004	5	..........a	-327.66
	82	16.6	-2.16036E-001	8.67451E-009	0.00000E+000	-2.16150E-001	9.90392E-004	5	..........a	-327.66
	84	17	-1.96128E-001	1.02637E-008	0.00000E+000	-1.96150E-001	9.73692E-004	5	..........a	-327.66
	86	17.4	-1.76105E-001	1.19189E-008	0.00000E+000	-1.76150E-001	9.70292E-004	5	..........a	-327.66
	88	17.8	-1.56116E-001	1.35220E-008	0.00000E+000	-1.56150E-001	9.70992E-004	5	..........a	-327.66
	90	18.2	-1.36126E-001	1.51038E-008	0.00000E+000	-1.36150E-001	9.96792E-004	5	..........a	-327.66
	92	18.6	-1.16139E-001	1.67176E-008	0.00000E+000	-1.16150E-001	9.70992E-004	5	..........a	-327.66
	94	19	-9.61282E-002	1.83247E-008	0.00000E+000	-9.61500E-002	9.78392E-004	5	..........a	-327.66
	96	19.4	-7.61398E-002	1.99526E-008	0.00000E+000	-7.61500E-002	9.83092E-004	5	..........a	-327.66
	98	19.8	-5.61187E-002	2.16392E-008	0.00000E+000	-5.61500E-002	9.85092E-004	5	..........a	-327.66
	100	20.2	-3.61439E-002	2.33326E-008	0.00000E+000	-3.61500E-002	9.68092E-004	5	..........a	-327.66
	102	20.6	-1.61529E-002	2.51303E-008	0.00000E+000	-1.61500E-002	9.74492E-004	5	..........a	-327.66
	104	21	3.88214E-003	2.69351E-008	0.00000E+000	3.85001E-003	9.47292E-004	5	..........a	-327.66
	106	21.4	2.38568E-002	2.88214E-008	0.00000E+000	2.38500E-002	9.89592E-004	5	..........a	-327.66
	108	21.8	4.38816E-002	3.07144E-008	0.00000E+000	4.38500E-002	9.78392E-004	5	..........a	-327.66
	110	22.2	6.38737E-002	3.27650E-008	0.00000E+000	6.38500E-002	9.84192E-004	5	..........a	-327.66
	112	22.6	8.38956E-002	3.49148E-008	0.00000E+000	8.38500E-002	9.58892E-004	5	..........a	-327.66
	114	23	1.03891E-001	3.71860E-008	0.00000E+000	1.03850E-001	9.77192E-004	5	..........a	-327.66
	116	23.4	1.23903E-001	3.97104E-008	0.00000E+000	1.23850E-001	9.78092E-004	5	..........a	-327.66
	118	23.8	1.43891E-001	4.25250E-008	0.00000E+000	1.43850E-001	9.76592E-004	5	..........a	-327.66
	120	24.2	1.63887E-001	4.55854E-008	0.00000E+000	1.63850E-001	9.73792E-004	5	..........a	-327.66
	122	24.6	1.83863E-001	4.92599E-008	0.00000E+000	1.83850E-001	9.90192E-004	5	..........a	-327.66
	124	25	2.03860E-001	5.40242E-008	0.00000E+000	2.03850E-001	9.76192E-004	5	..........a	-327.66
	126	25.4	2.23844E-001	5.75210E-008	0.00000E+000	2.23850E-001	9.98292E-004	5	..........a	-327.66
	128	25.8	2.43850E-001	6.03677E-008	0.00000E+000	2.43850E-001	9.56592E-004	5	..........a	-327.66
	130	26.2	2.63836E-001	6.34934E-008	0.00000E+000	2.63850E-001	9.69092E-004	5	..........a	-327.66
	132	26.6	2.83828E-001	6.69014E-008	0.00000E+000	2.83850E-001	9.71092E-004	5	..........a	-327.66
	134	27	3.03840E-001	7.04639E-008	0.00000E+000	3.03850E-001	9.79192E-004	5	..........a	-327.66
	136	27.4	3.23864E-001	7.41245E-008	0.00000E+000	3.23850E-001	9.66392E-004	5	..........a	-327.66
	138	27.8	3.43837E-001	7.80110E-008	0.00000E+000	3.43850E-001	9.80892E-004	5	..........a	-327.66
	140	28.2	3.63827E-001	8.21742E-008	0.00000E+000	3.63850E-001	9.85692E-004	5	..........a	-327.66
	142	28.6	3.83826E-001	8.67200E-008	0.00000E+000	3.83850E-001	9.83992E-004	5	..........a	-327.66
	144	29	4.03823E-001	9.15029E-008	0.00000E+000	4.03850E-001	9.61492E-004	5	..........a	-327.66
	146	29.4	4.23795E-001	9.66017E-008	0.00000E+000	4.23850E-001	9.74492E-004	5	..........a	-327.66
	148	29.8	4.43803E-001	1.02037E-007	0.00000E+000	4.43850E-001	9.74892E-004	5	..........a	-327.66
	150	30.2	4.63778E-001	1.07466E-007	0.00000E+000	4.63850E-001	9.88892E-004	5	..........a	-327.66
	152	30.6	4.83787E-001	1.12583E-007	0.00000E+000	4.83850E-001	9.67692E-004	5	..........a	-327.66
	154	31	5.03777E-001	1.17574E-007	0.00000E+000	5.03850E-001	9.74992E-004	5	..........a	-327.66
	156	31.4	5.23787E-001	1.22502E-007	0.00000E+000	5.23850E-001	9.73592E-004	5	..........a	-327.66
	158	31.8	5.43788E-001	1.27488E-007	0.00000E+000	5.43850E-001	9.72492E-004	5	..........a	-327.66
	160	32.2	5.63760E-001	1.32415E-007	0.00000E+000	5.63850E-001	9.69492E-004	5	..........a	-327.66
	162	32.6	5.83762E-001	1.37455E-007	0.00000E+000	5.83850E-001	9.82992E-004	5	..........a	-327.66
	164	33	6.03764E-001	1.42429E-007	0.00000E+000	6.03850E-001	9.69692E-004	5	..........a	-327.66
	166	33.4	6.23756E-001	1.47530E-007	0.00000E+000	6.23850E-001	9.68192E-004	5	..........a	-327.66
	168	33.8	6.43731E-001	1.52764E-007	0.00000E+000	6.43850E-001	9.78592E-004	5	..........a	-327.66
	170	34.2	6.63726E-001	1.58036E-007	0.00000E+000	6.63850E-001	9.72292E-004	5	..........a	-327.66
	172	34.6	6.83704E-001	1.63565E-007	0.00000E+000	6.83850E-001	9.82992E-004	5	..........a	-327.66
	174	35	7.03747E-001	1.69610E-007	0.00000E+000	7.03850E-001	9.67792E-004	5	..........a	-327.66
	176	35.4	7.23721E-001	1.76071E-007	0.00000E+000	7.23850E-001	9.80392E-004	5	..........a	-327.66
	178	35.8	7.43718E-001	1.83394E-007	0.00000E+000	7.43850E-001	9.76392E-004	5	..........a	-327.66
	180	36.2	7.63722E-001	1.91779E-007	0.00000E+000	7.63850E-001	9.77492E-004	5	..........a	-327.66
	182	36.6	7.83733E-001	2.01299E-007	0.00000E+000	7.83850E-001	9.74992E-004	5	..........a	-327.66
	184	37	8.03720E-001	2.12104E-007	0.00000E+000	8.03850E-001	9.66092E-004	5	..........a	-327.66
CURVE2	TABLE
	Pt	T	Vf	Im	Vu	Sig	Ach	IERange	Over	Temp
	#	s	V vs. Ref.	A	V	V	V	#	bits	deg C
	185	37.2	7.89945E-001	1.64832E-007	0.00000E+000	7.90000E-001	9.85592E-004	5	..........a	-327.66
	188	37.8	7.59907E-001	1.11839E-007	0.00000E+000	7.60000E-001	9.89492E-004	5	..........a	-327.66
	191	38.4	7.29904E-001	8.57846E-008	0.00000E+000	7.30000E-001	9.87892E-004	5	..........a	-327.66
	194	39	6.99916E-001	6.97482E-008	0.00000E+000	7.00000E-001	9.62492E-004	5	..........a	-327.66
	197	39.6	6.69966E-001	5.82228E-008	0.00000E+000	6.70000E-001	9.81192E-004	5	..........a	-327.66
	200	40.2	6.39883E-001	4.90391E-008	0.00000E+000	6.40000E-001	9.99892E-004	5	..........a	-327.66
	203	40.8	6.09949E-001	4.12391E-008	0.00000E+000	6.10000E-001	9.86192E-004	5	..........a	-327.66
	206	41.4	5.79992E-001	3.47414E-008	0.00000E+000	5.80000E-001	9.82392E-004	5	..........a	-327.66
	209	42	5.50023E-001	2.91628E-008	0.00000E+000	5.50000E-001	9.75892E-004	5	..........a	-327.66
	212	42.6	5.19961E-001	2.39392E-008	0.00000E+000	5.20000E-001	9.71992E-004	5	..........a	-327.66
	215	43.2	4.89948E-001	1.95906E-008	0.00000E+000	4.90000E-001	9.73392E-004	5	..........a	-327.66
	218	43.8	4.60001E-001	1.56098E-008	0.00000E+000	4.60000E-001	9.75892E-004	5	..........a	-327.66
	221	44.4	4.29995E-001	1.13715E-008	0.00000E+000	4.30000E-001	9.70592E-004	5	..........a	-327.66
	224	45	3.99968E-001	7.04868E-009	0.00000E+000	4.00000E-001	9.89092E-004	5	..........a	-327.66
	227	45.6	3.70013E-001	2.72515E-009	0.00000E+000	3.70000E-001	9.85292E-004	5	..........a	-327.66
	230	46.2	3.40052E-001	-1.70223E-009	0.00000E+000	3.40000E-001	9.77392E-004	5	..........a	-327.66
	233	46.8	3.10064E-001	-6.00531E-009	0.00000E+000	3.10000E-001	9.89192E-004	5	..........a	-327.66
	236	47.4	2.79997E-001	-1.04271E-008	0.00000E+000	2.80000E-001	9.77792E-004	5	..........a	-327.66
	239	48	2.50005E-001	-1.47817E-008	0.00000E+000	2.50000E-001	9.79392E-004	5	..........a	-327.66
	242	48.6	2.19899E-001	-1.85436E-008	0.00000E+000	2.20000E-001	9.60092E-004	5	..........a	-327.66
	245	49.2	1.90113E-001	-2.12992E-008	0.00000E+000	1.90000E-001	9.58192E-004	5	..........a	-327.66
	248	49.8	1.60045E-001	-2.24195E-008	0.00000E+000	1.60000E-001	9.97092E-004	5	..........a	-327.66
	251	50.4	1.30047E-001	-2.22815E-008	0.00000E+000	1.30000E-001	9.74792E-004	5	..........a	-327.66
	254	51	1.00105E-001	-2.15607E-008	0.00000E+000	1.00000E-001	9.72092E-004	5	..........a	-327.66
	257	51.6	7.00514E-002	-2.08546E-008	0.00000E+000	7.00000E-002	9.81092E-004	5	..........a	-327.66
	260	52.2	4.01167E-002	-2.06992E-008	0.00000E+000	4.00000E-002	9.76892E-004	5	..........a	-327.66
	263	52.8	1.01038E-002	-2.11873E-008	0.00000E+000	1.00000E-002	9.63692E-004	5	..........a	-327.66
	266	53.4	-1.99171E-002	-2.28815E-008	0.00000E+000	-2.00000E-002	9.70192E-004	5	..........a	-327.66
	269	54	-4.99073E-002	-2.32697E-008	0.00000E+000	-5.00000E-002	9.63792E-004	5	..........a	-327.66
[...]
	1034	207	6.99937E-001	5.85204E-008	0.00000E+000	7.00000E-001	9.62492E-004	5	..........a	-327.66
	1035	207.2	6.89914E-001	5.48571E-008	0.00000E+000	6.90000E-001	9.80292E-004	5	..........a	-327.66
	1036	207.4	6.79922E-001	5.15115E-008	0.00000E+000	6.80000E-001	9.74492E-004	5	..........a	-327.66
	1037	207.6	6.69956E-001	4.84239E-008	0.00000E+000	6.70000E-001	9.93792E-004	5	..........a	-327.66
	1038	207.8	6.59948E-001	4.54734E-008	0.00000E+000	6.60000E-001	9.71692E-004	5	..........a	-327.66
	1039	208	6.49932E-001	4.27190E-008	0.00000E+000	6.50000E-001	9.70292E-004	5	..........a	-327.66
	1040	208.2	6.39908E-001	4.00787E-008	0.00000E+000	6.40000E-001	9.92792E-004	5	..........a	-327.66
	1041	208.4	6.30025E-001	3.76077E-008	0.00000E+000	6.30000E-001	9.82692E-004	5	..........a	-327.66
	1042	208.6	6.19949E-001	3.51864E-008	0.00000E+000	6.20000E-001	9.80692E-004	5	..........a	-327.66
	1043	208.8	6.09945E-001	3.28556E-008	0.00000E+000	6.10000E-001	9.88592E-004	5	..........a	-327.66
	1044	209	5.99982E-001	3.07040E-008	0.00000E+000	6.00000E-001	9.92392E-004	5	..........a	-327.66
	1045	209.2	5.89987E-001	2.87415E-008	0.00000E+000	5.90000E-001	9.94392E-004	5	..........a	-327.66
	1046	209.4	5.80016E-001	2.70170E-008	0.00000E+000	5.80000E-001	9.70792E-004	5	..........a	-327.66
	1047	209.6	5.69970E-001	2.53161E-008	0.00000E+000	5.70000E-001	9.87092E-004	5	..........a	-327.66
	1048	209.8	5.59928E-001	2.36428E-008	0.00000E+000	5.60000E-001	9.92292E-004	5	..........a	-327.66
	1049	210	5.50029E-001	2.19499E-008	0.00000E+000	5.50000E-001	9.73192E-004	5	..........a	-327.66
	1050	210.2	5.39996E-001	2.02315E-008	0.00000E+000	5.40000E-001	9.78892E-004	5	..........a	-327.66
	1051	210.4	5.29944E-001	1.86102E-008	0.00000E+000	5.30000E-001	9.83692E-004	5	..........a	-327.66
	1052	210.6	5.19974E-001	1.70803E-008	0.00000E+000	5.20000E-001	9.92092E-004	5	..........a	-327.66
	1053	210.8	5.09998E-001	1.57253E-008	0.00000E+000	5.10000E-001	9.77192E-004	5	..........a	-327.66
	1054	211	5.00050E-001	1.45518E-008	0.00000E+000	5.00000E-001	9.71492E-004	5	..........a	-327.66
	1055	211.2	4.89925E-001	1.34590E-008	0.00000E+000	4.90000E-001	9.80292E-004	5	..........a	-327.66
	1056	211.4	4.79932E-001	1.23523E-008	0.00000E+000	4.80000E-001	9.99992E-004	5	..........a	-327.66
	1057	211.6	4.70033E-001	1.12026E-008	0.00000E+000	4.70000E-001	9.87392E-004	5	..........a	-327.66
	1058	211.8	4.60004E-001	1.00015E-008	0.00000E+000	4.60000E-001	9.68192E-004	5	..........a	-327.66
	1059	212	4.50061E-001	8.72348E-009	0.00000E+000	4.50000E-001	9.81492E-004	5	..........a	-327.66
	1060	212.2	4.39939E-001	7.44233E-009	0.00000E+000	4.40000E-001	9.89992E-004	5	..........a	-327.66
	1061	212.4	4.30007E-001	6.15726E-009	0.00000E+000	4.30000E-001	9.93692E-004	5	..........a	-327.66
	1062	212.6	4.20018E-001	4.83881E-009	0.00000E+000	4.20000E-001	9.66292E-004	5	..........a	-327.66
	1063	212.8	4.09963E-001	3.50863E-009	0.00000E+000	4.10000E-001	9.76392E-004	5	..........a	-327.66
	1064	213	3.99998E-001	2.18491E-009	0.00000E+000	4.00000E-001	9.73192E-004	5	..........a	-327.66
	1065	213.2	3.90044E-001	8.39298E-010	0.00000E+000	3.90000E-001	9.81692E-004	5	..........a	-327.66
	1066	213.4	3.80064E-001	-6.00286E-010	0.00000E+000	3.80000E-001	9.64092E-004	5	..........a	-327.66
	1067	213.6	3.70021E-001	-1.95791E-009	0.00000E+000	3.70000E-001	9.79292E-004	5	..........a	-327.66
	1068	213.8	3.60057E-001	-3.31115E-009	0.00000E+000	3.60000E-001	9.91692E-004	5	..........a	-327.66
	1069	214	3.50087E-001	-4.72154E-009	0.00000E+000	3.50000E-001	9.76592E-004	5	..........a	-327.66
	1070	214.2	3.40089E-001	-6.15957E-009	0.00000E+000	3.40000E-001	9.70992E-004	5	..........a	-327.66
	1071	214.4	3.30031E-001	-7.55226E-009	0.00000E+000	3.30000E-001	9.81492E-004	5	..........a	-327.66
	1072	214.6	3.20075E-001	-8.97787E-009	0.00000E+000	3.20000E-001	9.92092E-004	5	..........a	-327.66
	1073	214.8	3.10074E-001	-1.04414E-008	0.00000E+000	3.10000E-001	9.76792E-004	5	..........a	-327.66
	1074	215	3.00066E-001	-1.19081E-008	0.00000E+000	3.00000E-001	9.71392E-004	5	..........a	-327.66
	1075	215.2	2.90046E-001	-1.34011E-008	0.00000E+000	2.90000E-001	9.83992E-004	5	..........a	-327.66
	1076	215.4	2.80020E-001	-1.49007E-008	0.00000E+000	2.80000E-001	9.72292E-004	5	..........a	-327.66
	1077	215.6	2.70096E-001	-1.63854E-008	0.00000E+000	2.70000E-001	9.82892E-004	5	..........a	-327.66
	1078	215.8	2.60050E-001	-1.78632E-008	0.00000E+000	2.60000E-001	9.78892E-004	5	..........a	-327.66
	1079	216	2.50054E-001	-1.92497E-008	0.00000E+000	2.50000E-001	9.96592E-004	5	..........a	-327.66
	1080	216.2	2.40075E-001	-2.05666E-008	0.00000E+000	2.40000E-001	9.89892E-004	5	..........a	-327.66
	1081	216.4	2.30029E-001	-2.17997E-008	0.00000E+000	2.30000E-001	9.81492E-004	5	..........a	-327.66
	1082	216.6	2.20029E-001	-2.28373E-008	0.00000E+000	2.20000E-001	9.65092E-004	5	..........a	-327.66
	1083	216.8	2.10037E-001	-2.37557E-008	0.00000E+000	2.10000E-001	9.81892E-004	5	..........a	-327.66
	1084	217	2.00074E-001	-2.44381E-008	0.00000E+000	2.00000E-001	9.82592E-004	5	..........a	-327.66
	1085	217.2	1.90116E-001	-2.49946E-008	0.00000E+000	1.90000E-001	9.79892E-004	5	..........a	-327.66
	1086	217.4	1.80119E-001	-2.53137E-008	0.00000E+000	1.80000E-001	9.54992E-004	5	..........a	-327.66
	1087	217.6	1.70099E-001	-2.54783E-008	0.00000E+000	1.70000E-001	9.82292E-004	5	..........a	-327.66
	1088	217.8	1.60089E-001	-2.54612E-008	0.00000E+000	1.60000E-001	9.65292E-004	5	..........a	-327.66
	1089	218	1.50100E-001	-2.52896E-008	0.00000E+000	1.50000E-001	9.86592E-004	5	..........a	-327.66
	1090	218.2	1.40128E-001	-2.49819E-008	0.00000E+000	1.40000E-001	9.70592E-004	5	..........a	-327.66
	1091	218.4	1.30098E-001	-2.45758E-008	0.00000E+000	1.30000E-001	9.83192E-004	5	..........a	-327.66
	1092	218.6	1.20098E-001	-2.41166E-008	0.00000E+000	1.20000E-001	9.82292E-004	5	..........a	-327.66
	1093	218.8	1.10114E-001	-2.35813E-008	0.00000E+000	1.10000E-001	9.76192E-004	5	..........a	-327.66
	1094	219	1.00125E-001	-2.31104E-008	0.00000E+000	1.00000E-001	9.69892E-004	5	..........a	-327.66
	1095	219.2	9.00856E-002	-2.26222E-008	0.00000E+000	9.00000E-002	9.70392E-004	5	..........a	-327.66
	1096	219.4	8.00395E-002	-2.22266E-008	0.00000E+000	8.00000E-002	9.92192E-004	5	..........a	-327.66
	1097	219.6	7.00352E-002	-2.19891E-008	0.00000E+000	7.00000E-002	9.86792E-004	5	..........a	-327.66
	1098	219.8	6.01083E-002	-2.18373E-008	0.00000E+000	6.00000E-002	9.62292E-004	5	..........a	-327.66
	1099	220	5.00706E-002	-2.17753E-008	0.00000E+000	5.00000E-002	9.80592E-004	5	..........a	-327.66
	1100	220.2	4.01560E-002	-2.17631E-008	0.00000E+000	4.00000E-002	9.80792E-004	5	..........a	-327.66
	1101	220.4	3.00833E-002	-2.18323E-008	0.00000E+000	3.00000E-002	9.93192E-004	5	..........a	-327.66
	1102	220.6	2.01790E-002	-2.19607E-008	0.00000E+000	2.00000E-002	9.69092E-004	5	..........a	-327.66
	1103	220.8	1.01067E-002	-2.21666E-008	0.00000E+000	1.00000E-002	9.60392E-004	5	..........a	-327.66
	1104	221	1.46916E-005	-2.24791E-008	0.00000E+000	7.45058E-009	9.89792E-004	5	..........a	-327.66
	1105	221.2	-9.88701E-003	-2.27818E-008	0.00000E+000	-1.00000E-002	9.79292E-004	5	..........a	-327.66
	1106	221.4	-1.99020E-002	-2.30801E-008	0.00000E+000	-2.00000E-002	9.65492E-004	5	..........a	-327.66
	1107	221.6	-2.99290E-002	-2.35448E-008	0.00000E+000	-3.00000E-002	9.65592E-004	5	..........a	-327.66
	1108	221.8	-3.99041E-002	-2.40376E-008	0.00000E+000	-4.00000E-002	9.78292E-004	5	..........a	-327.66
	1109	222	-4.98794E-002	-2.45315E-008	0.00000E+000	-5.00000E-002	9.74992E-004	5	..........a	-327.66
	1110	222.2	-5.98943E-002	-2.49247E-008	0.00000E+000	-6.00000E-002	9.59792E-004	5	..........a	-327.66
	1111	222.4	-6.98913E-002	-2.57550E-008	0.00000E+000	-7.00000E-002	9.80292E-004	5	..........a	-327.66
	1112	222.6	-7.99257E-002	-2.61900E-008	0.00000E+000	-8.00000E-002	9.86492E-004	5	..........a	-327.66
	1113	222.8	-8.99049E-002	-2.68297E-008	0.00000E+000	-9.00000E-002	9.71292E-004	5	..........a	-327.66
	1114	223	-9.98976E-002	-2.77131E-008	0.00000E+000	-1.00000E-001	9.58092E-004	5	..........a	-327.66
	1115	223.2	-1.09954E-001	-2.84135E-008	0.00000E+000	-1.10000E-001	9.91392E-004	5	..........a	-327.66
	1116	223.4	-1.19911E-001	-2.89451E-008	0.00000E+000	-1.20000E-001	9.70292E-004	5	..........a	-327.66
	1117	223.6	-1.29908E-001	-2.98050E-008	0.00000E+000	-1.30000E-001	9.74492E-004	5	..........a	-327.66
	1118	223.8	-1.39939E-001	-3.04257E-008	0.00000E+000	-1.40000E-001	9.56392E-004	5	..........a	-327.66
	1119	224	-1.49924E-001	-3.11725E-008	0.00000E+000	-1.50000E-001	9.83192E-004	5	..........a	-327.66
	1120	224.2	-1.59938E-001	-3.19862E-008	0.00000E+000	-1.60000E-001	9.84092E-004	5	..........a	-327.66