File: example_project/raw_outputs/20240321_ZB_GM0016_HL03_E07_CV50k.DTA
EXPLAIN
TAG	CV
TITLE	LABEL	Cyclic Voltammetry	Test &Identifier
DATE	LABEL	3/21/2024	Date
TIME	LABEL	18:06:08	Time
NOTES	NOTES	1	&Notes...

PSTAT	PSTAT	REF600P-43058	Potentiostat
VINIT	POTEN	0.00000E+000	T	Initial &E (V)
VLIMIT1	POTEN	-6.00000E-001	F	Scan Limit &1 (V)
VLIMIT2	POTEN	8.00000E-001	F	Scan Limit &2 (V)
VFINAL	POTEN	0.00000E+000	T	Final &E (V)
SCANRATE	QUANT	4.99999E+004	&Scan Rate (mV/s)
STEPSIZE	QUANT	1.00000E+001	St&ep Size (mV)
CYCLES	IQUANT	10	C&ycles (#)
IMODE	SELECTOR	1	I/E Range &Mode
IRANGE	QUANT	1.00000E-005	&Max Current (mA)
AREA	QUANT	1.00000E+000	Electrode &Area (cm^2)
ELECTRODETYPE	SELECTOR	0	Electrode Type
STRIPPING	TOGGLE	F	Used for Stripping
POLARITY	TOGGLE	F	Signal Polarity
CONDIT	TWOPARAM	F	1.50000E+001	0.00000E+000	Conditionin&g	Time(s)	E(V)
DELAY	TWOPARAM	T	1.00000E+001	0.00000E+000	Init. De&lay	Time(s)	Stab.(mV/s)
EQDELAY	QUANT	1.00000E+001	Equil. &Time (s)
IRCOMP	SELECTOR	0	IRCom&p
PFCOR	QUANT	5.00000E+001	PF Corr. (ohm)
SAMPLINGMODE	SELECTOR	1	Sampling &Mode
OCVCURVE	TABLE	39
	Pt	T	Vf	Vm	Ach	Over	Temp
	#	s	V vs. Ref.	V	V	bits	deg C
	0	0.258333	4.25787E-001	4.25787E-001	2.31222E-004	..........a	-327.66
	1	0.516667	4.25790E-001	4.25913E-001	2.33756E-004	..........a	-327.66
	2	0.775	4.25806E-001	4.26120E-001	2.44222E-004	..........a	-327.66
	3	1.03333	4.25858E-001	4.26318E-001	2.39022E-004	..........a	-327.66
	4	1.29167	4.25959E-001	4.26375E-001	2.56222E-004	..........a	-327.66
	5	1.55	4.26094E-001	4.26376E-001	2.50289E-004	..........a	-327.66
	6	1.80833	4.26224E-001	4.26400E-001	2.39956E-004	..........a	-327.66
	7	2.06667	4.26319E-001	4.26466E-001	2.51622E-004	..........a	-327.66
	8	2.325	4.26380E-001	4.26597E-001	2.28022E-004	..........a	-327.66
	9	2.58333	4.26433E-001	4.26712E-001	2.26689E-004	..........a	-327.66
	10	2.84167	4.26501E-001	4.26803E-001	2.37356E-004	..........a	-327.66
	11	3.1	4.26590E-001	4.26932E-001	2.27356E-004	..........a	-327.66
	12	3.35833	4.26694E-001	4.27073E-001	2.37422E-004	..........a	-327.66
	13	3.61667	4.26808E-001	4.27170E-001	2.54489E-004	..........a	-327.66
	14	3.875	4.26927E-001	4.27284E-001	2.42556E-004	..........a	-327.66
	15	4.13333	4.27046E-001	4.27381E-001	2.36156E-004	..........a	-327.66
	16	4.39167	4.27160E-001	4.27483E-001	2.34156E-004	..........a	-327.66
	17	4.65	4.27269E-001	4.27597E-001	2.31556E-004	..........a	-327.66
	18	4.90833	4.27377E-001	4.27794E-001	2.33289E-004	..........a	-327.66
	19	5.16667	4.27492E-001	4.27954E-001	2.45289E-004	..........a	-327.66
	20	5.425	4.27623E-001	4.28012E-001	2.44356E-004	..........a	-327.66
	21	5.68333	4.27761E-001	4.28037E-001	2.43289E-004	..........a	-327.66
	22	5.94167	4.27883E-001	4.28086E-001	2.49489E-004	..........a	-327.66
	23	6.2	4.27976E-001	4.28199E-001	2.40356E-004	..........a	-327.66
	24	6.45833	4.28047E-001	4.28286E-001	2.27356E-004	..........a	-327.66
	25	6.71667	4.28115E-001	4.28361E-001	2.45489E-004	..........a	-327.66
	26	6.975	4.28191E-001	4.28478E-001	2.48756E-004	..........a	-327.66
	27	7.23333	4.28277E-001	4.28602E-001	2.38422E-004	..........a	-327.66
	28	7.49167	4.28372E-001	4.28717E-001	2.39756E-004	..........a	-327.66
	29	7.75	4.28477E-001	4.28807E-001	2.42022E-004	..........a	-327.66
	30	8.00833	4.28586E-001	4.28899E-001	2.46556E-004	..........a	-327.66
	31	8.26667	4.28694E-001	4.29002E-001	2.34089E-004	..........a	-327.66
	32	8.525	4.28797E-001	4.29091E-001	2.28556E-004	..........a	-327.66
	33	8.78333	4.28897E-001	4.29279E-001	2.36022E-004	..........a	-327.66
	34	9.04167	4.29004E-001	4.29496E-001	2.34556E-004	..........a	-327.66
	35	9.3	4.29131E-001	4.29585E-001	2.38889E-004	..........a	-327.66
	36	9.5583	4.29277E-001	4.29614E-001	2.43889E-004	..........a	-327.66
	37	9.8167	4.29417E-001	4.29652E-001	2.41556E-004	..........a	-327.66
	38	10.075	4.29528E-001	4.29731E-001	2.32956E-004	..........a	-327.66
EOC	QUANT	0.4295278	Open Circuit (V)
PSTATMODEL	IQUANT	7	Pstat Model
PSTATSECTION	LABEL	REF600P-43058	Pstat Section
PSTATSERIALNO	LABEL	43058	Pstat Serial Number
CTRLMODE	IQUANT	1	Control Mode
ELECTROMETER	IQUANT	0	RE=0 or CS=1
IESTAB	IQUANT	2	I/E Stability
CASPEED	IQUANT	4	Control Amp Speed
CONVENTION	IQUANT	1	Current Convention
ICHRANGE	IQUANT	2	Ich Range
ICHRANGEMODE	TOGGLE	F	Ich Auto Range
ICHOFFSETENABLE	TOGGLE	F	Ich Offset Enable
ICHOFFSET	QUANT	0	Ich Offset (V)
ICHFILTER	IQUANT	1	Ich Filter
VCHRANGE	IQUANT	2	Vch Range
VCHRANGEMODE	TOGGLE	F	Vch Auto Range
VCHOFFSETENABLE	TOGGLE	F	Vch Offset Enable
VCHOFFSET	QUANT	0	Vch Offset (V)
VCHFILTER	IQUANT	1	Vch Filter
ACHRANGE	IQUANT	2	Ach Range
ACHOFFSETENABLE	TOGGLE	F	Ach Offset Enable
ACHOFFSET	QUANT	0	Ach Offset (V)
ACHFILTER	IQUANT	1	Ach Filter
IERANGELOWERLIMIT	IQUANT	1	I/E Range Lower Limit
IERANGEMODE	TOGGLE	F	I/E AutoRange
IERANGE	IQUANT	4	I/E Range
POSFEEDENABLE	TOGGLE	F	Positive Feedback IR Comp
POSFEEDRESISTANCE	QUANT	0	Positive Feedback Resistance (ohm)
ACHSELECT	IQUANT	4	Ach Select
SENSECABLEID	IQUANT	7	Sense Cable ID
PWRCABLEID	IQUANT	7	Power Cable ID
DCCALDATE	LABEL	12/18/2023	DC Calibration Date
ACCALDATE	LABEL	12/18/2023	AC Calibration Date
THERMOSELECT	IQUANT	1	Thermo Select
FRAMEWORKVERSION	LABEL	7.8.4	Framework Version
INSTRUMENTVERSION	LABEL	4.42	Instrument Version
CURVE1	TABLE
	Pt	T	Vf	Im	Vu	Sig	Ach	IERange	Over	Temp
	#	s	V vs. Ref.	A	V	V	V	#	bits	deg C
	0	0.0002	4.29570E-001	2.37885E-011	0.00000E+000	4.29550E-001	8.00223E-005	4	..........a	-327.66
	3	0.0008	3.99470E-001	-1.10217E-010	0.00000E+000	3.99550E-001	8.00223E-005	4	..........a	-327.66
	6	0.0014	3.69620E-001	-2.62222E-010	0.00000E+000	3.69550E-001	8.00223E-005	4	..........a	-327.66
	9	0.002	3.39470E-001	-4.32229E-010	0.00000E+000	3.39550E-001	8.00223E-005	4	..........a	-327.66
	12	0.0026	3.09670E-001	-6.16236E-010	0.00000E+000	3.09550E-001	8.00223E-005	4	..........a	-327.66
	15	0.0032	2.79670E-001	-8.14244E-010	0.00000E+000	2.79550E-001	8.00223E-005	4	..........a	-327.66
	18	0.0038	2.49570E-001	-1.03125E-009	0.00000E+000	2.49550E-001	8.00223E-005	4	..........a	-327.66
	21	0.0044	2.19570E-001	-1.26726E-009	0.00000E+000	2.19550E-001	8.00223E-005	4	..........a	-327.66
	24	0.005	1.89570E-001	-1.53827E-009	0.00000E+000	1.89550E-001	8.00223E-005	4	..........a	-327.66
	27	0.0056	1.59570E-001	-1.82128E-009	0.00000E+000	1.59550E-001	-1.19978E-004	4	..........a	-327.66
	30	0.0062	1.29670E-001	-2.14629E-009	0.00000E+000	1.29550E-001	8.00223E-005	4	..........a	-327.66
	33	0.0068	9.95695E-002	-2.50231E-009	0.00000E+000	9.95500E-002	8.00223E-005	4	..........a	-327.66
	36	0.0074	6.95695E-002	-2.89832E-009	0.00000E+000	6.95500E-002	8.00223E-005	4	..........a	-327.66
	39	0.008	3.96195E-002	-3.33134E-009	0.00000E+000	3.95500E-002	8.00223E-005	4	..........a	-327.66
	42	0.0086	9.66952E-003	-3.81336E-009	0.00000E+000	9.55001E-003	8.00223E-005	4	..........a	-327.66
	45	0.0092	-2.04305E-002	-4.33238E-009	0.00000E+000	-2.04500E-002	8.00223E-005	4	..........a	-327.66
	48	0.0098	-5.05305E-002	-4.89140E-009	0.00000E+000	-5.04500E-002	8.00223E-005	4	..........a	-327.66
	51	0.0104	-8.03305E-002	-5.46942E-009	0.00000E+000	-8.04500E-002	8.00223E-005	4	..........a	-327.66
	54	0.011	-1.10330E-001	-6.09045E-009	0.00000E+000	-1.10450E-001	-3.19978E-004	4	..........a	-327.66
	57	0.0116	-1.40330E-001	-6.71647E-009	0.00000E+000	-1.40450E-001	8.00223E-005	4	..........a	-327.66
	60	0.0122	-1.70230E-001	-7.35850E-009	0.00000E+000	-1.70450E-001	8.00223E-005	4	..........a	-327.66
	63	0.0128	-2.00330E-001	-8.00552E-009	0.00000E+000	-2.00450E-001	8.00223E-005	4	..........a	-327.66
	66	0.0134	-2.30230E-001	-8.65654E-009	0.00000E+000	-2.30450E-001	8.00223E-005	4	..........a	-327.66
	69	0.014	-2.60330E-001	-9.30557E-009	0.00000E+000	-2.60450E-001	8.00223E-005	4	..........a	-327.66
	72	0.0146	-2.90130E-001	-9.95060E-009	0.00000E+000	-2.90450E-001	8.00223E-005	4	..........a	-327.66
	75	0.0152	-3.20380E-001	-1.05876E-008	0.00000E+000	-3.20450E-001	8.00223E-005	4	..........a	-327.66
	78	0.0158	-3.50330E-001	-1.12266E-008	0.00000E+000	-3.50450E-001	8.00223E-005	4	..........a	-327.66
	81	0.0164	-3.80330E-001	-1.18517E-008	0.00000E+000	-3.80450E-001	8.00223E-005	4	..........a	-327.66
	84	0.017	-4.10130E-001	-1.24777E-008	0.00000E+000	-4.10450E-001	8.00223E-005	4	..........a	-327.66
	87	0.0176	-4.40330E-001	-1.31027E-008	0.00000E+000	-4.40450E-001	8.00223E-005	4	..........a	-327.66
	90	0.0182	-4.70130E-001	-1.37187E-008	0.00000E+000	-4.70450E-001	-4.19978E-004	4	..........a	-327.66
	93	0.0188	-5.00331E-001	-1.43348E-008	0.00000E+000	-5.00450E-001	8.00223E-005	4	..........a	-327.66
	96	0.0194	-5.30330E-001	-1.49638E-008	0.00000E+000	-5.30450E-001	8.00223E-005	4	..........a	-327.66
	99	0.02	-5.60230E-001	-1.56018E-008	0.00000E+000	-5.60450E-001	-3.19978E-004	4	..........a	-327.66
	102	0.0206	-5.90280E-001	-1.62498E-008	0.00000E+000	-5.90450E-001	-2.19978E-004	4	..........a	-327.66
	105	0.0212	-5.80330E-001	-1.65868E-008	0.00000E+000	-5.80450E-001	8.00223E-005	4	..........a	-327.66
	108	0.0218	-5.50231E-001	-1.66049E-008	0.00000E+000	-5.50450E-001	8.00223E-005	4	..........a	-327.66
	111	0.0224	-5.20431E-001	-1.65208E-008	0.00000E+000	-5.20450E-001	8.00223E-005	4	..........a	-327.66
	114	0.023	-4.90130E-001	-1.63698E-008	0.00000E+000	-4.90450E-001	8.00223E-005	4	..........a	-327.66
	117	0.0236	-4.60330E-001	-1.61828E-008	0.00000E+000	-4.60450E-001	8.00223E-005	4	..........a	-327.66
	120	0.0242	-4.30330E-001	-1.59648E-008	0.00000E+000	-4.30450E-001	8.00223E-005	4	..........a	-327.66
	123	0.0248	-4.00330E-001	-1.57128E-008	0.00000E+000	-4.00450E-001	-3.19978E-004	4	..........a	-327.66
	126	0.0254	-3.70130E-001	-1.54588E-008	0.00000E+000	-3.70450E-001	8.00223E-005	4	..........a	-327.66
	129	0.026	-3.40430E-001	-1.51848E-008	0.00000E+000	-3.40450E-001	-3.19978E-004	4	..........a	-327.66
	132	0.0266	-3.10230E-001	-1.48958E-008	0.00000E+000	-3.10450E-001	8.00223E-005	4	..........a	-327.66
	135	0.0272	-2.80330E-001	-1.45978E-008	0.00000E+000	-2.80450E-001	8.00223E-005	4	..........a	-327.66
	138	0.0278	-2.50330E-001	-1.42908E-008	0.00000E+000	-2.50450E-001	8.00223E-005	4	..........a	-327.66
	141	0.0284	-2.20330E-001	-1.39737E-008	0.00000E+000	-2.20450E-001	8.00223E-005	4	..........a	-327.66
	144	0.029	-1.90330E-001	-1.36507E-008	0.00000E+000	-1.90450E-001	8.00223E-005	4	..........a	-327.66
	147	0.0296	-1.60330E-001	-1.33187E-008	0.00000E+000	-1.60450E-001	8.00223E-005	4	..........a	-327.66
	150	0.0302	-1.30130E-001	-1.29817E-008	0.00000E+000	-1.30450E-001	8.00223E-005	4	..........a	-327.66
	153	0.0308	-1.00230E-001	-1.26367E-008	0.00000E+000	-1.00450E-001	-3.19978E-004	4	..........a	-327.66
	156	0.0314	-7.04305E-002	-1.22777E-008	0.00000E+000	-7.04500E-002	-2.19978E-004	4	..........a	-327.66
	159	0.032	-4.04305E-002	-1.19237E-008	0.00000E+000	-4.04500E-002	8.00223E-005	4	..........a	-327.66
	162	0.0326	-1.02305E-002	-1.15597E-008	0.00000E+000	-1.04500E-002	8.00223E-005	4	..........a	-327.66
	165	0.0332	1.95695E-002	-1.11906E-008	0.00000E+000	1.95500E-002	8.00223E-005	4	..........a	-327.66
	168	0.0338	4.96695E-002	-1.08106E-008	0.00000E+000	4.95500E-002	8.00223E-005	4	..........a	-327.66
	171	0.0344	7.96695E-002	-1.04246E-008	0.00000E+000	7.95500E-002	8.00223E-005	4	..........a	-327.66
	174	0.035	1.09670E-001	-1.00346E-008	0.00000E+000	1.09550E-001	8.00223E-005	4	..........a	-327.66
	177	0.0356	1.39570E-001	-9.62858E-009	0.00000E+000	1.39550E-001	8.00223E-005	4	..........a	-327.66
	180	0.0362	1.69670E-001	-9.21857E-009	0.00000E+000	1.69550E-001	8.00223E-005	4	..........a	-327.66
	183	0.0368	1.99670E-001	-8.79755E-009	0.00000E+000	1.99550E-001	8.00223E-005	4	..........a	-327.66
	186	0.0374	2.29470E-001	-8.36253E-009	0.00000E+000	2.29550E-001	8.00223E-005	4	..........a	-327.66
	189	0.038	2.59670E-001	-7.92152E-009	0.00000E+000	2.59550E-001	8.00223E-005	4	..........a	-327.66
	192	0.0386	2.89570E-001	-7.46350E-009	0.00000E+000	2.89550E-001	8.00223E-005	4	..........a	-327.66
	195	0.0392	3.19670E-001	-6.99648E-009	0.00000E+000	3.19550E-001	8.00223E-005	4	..........a	-327.66
	198	0.0398	3.49770E-001	-6.51846E-009	0.00000E+000	3.49550E-001	8.00223E-005	4	..........a	-327.66
	201	0.0404	3.79670E-001	-6.02644E-009	0.00000E+000	3.79550E-001	8.00223E-005	4	..........a	-327.66
	204	0.041	4.09370E-001	-5.52542E-009	0.00000E+000	4.09550E-001	8.00223E-005	4	..........a	-327.66
	207	0.0416	4.39570E-001	-5.00340E-009	0.00000E+000	4.39550E-001	8.00223E-005	4	..........a	-327.66
	210	0.0422	4.69570E-001	-4.47238E-009	0.00000E+000	4.69550E-001	8.00223E-005	4	..........a	-327.66
	213	0.0428	4.99670E-001	-3.91936E-009	0.00000E+000	4.99550E-001	8.00223E-005	4	..........a	-327.66
	216	0.0434	5.29369E-001	-3.34734E-009	0.00000E+000	5.29550E-001	8.00223E-005	4	..........a	-327.66
	219	0.044	5.59469E-001	-2.75032E-009	0.00000E+000	5.59550E-001	8.00223E-005	4	..........a	-327.66
	222	0.0446	5.89369E-001	-2.12229E-009	0.00000E+000	5.89550E-001	8.00223E-005	4	..........a	-327.66
	225	0.0452	6.19569E-001	-1.46827E-009	0.00000E+000	6.19550E-001	8.00223E-005	4	..........a	-327.66
	228	0.0458	6.49669E-001	-7.71242E-010	0.00000E+000	6.49550E-001	8.00223E-005	4	..........a	-327.66
	231	0.0464	6.79669E-001	-4.62141E-011	0.00000E+000	6.79550E-001	8.00223E-005	4	..........a	-327.66
	234	0.047	7.09369E-001	7.26816E-010	0.00000E+000	7.09550E-001	8.00223E-005	4	..........a	-327.66
	237	0.0476	7.39469E-001	1.54085E-009	0.00000E+000	7.39550E-001	8.00223E-005	4	..........a	-327.66
	240	0.0482	7.69369E-001	2.40588E-009	0.00000E+000	7.69550E-001	8.00223E-005	4	..........a	-327.66
	243	0.0488	7.99469E-001	3.32292E-009	0.00000E+000	7.99550E-001	8.00223E-005	4	..........a	-327.66
CURVE2	TABLE
	Pt	T	Vf	Im	Vu	Sig	Ach	IERange	Over	Temp
	#	s	V vs. Ref.	A	V	V	V	#	bits	deg C
	244	0.049	7.89970E-001	3.49392E-009	0.00000E+000	7.90000E-001	8.00223E-005	4	..........a	-327.66
	247	0.0496	7.59969E-001	3.78693E-009	0.00000E+000	7.60000E-001	8.00223E-005	4	..........a	-327.66
	250	0.0502	7.29869E-001	3.87894E-009	0.00000E+000	7.30000E-001	8.00223E-005	4	..........a	-327.66
	253	0.0508	6.99769E-001	3.85894E-009	0.00000E+000	7.00000E-001	8.00223E-005	4	..........a	-327.66
	256	0.0514	6.69869E-001	3.76993E-009	0.00000E+000	6.70000E-001	-3.19978E-004	4	..........a	-327.66
	259	0.052	6.39870E-001	3.63693E-009	0.00000E+000	6.40000E-001	8.00223E-005	4	..........a	-327.66
	262	0.0526	6.09869E-001	3.47392E-009	0.00000E+000	6.10000E-001	8.00223E-005	4	..........a	-327.66
	265	0.0532	5.79669E-001	3.28591E-009	0.00000E+000	5.80000E-001	8.00223E-005	4	..........a	-327.66
	268	0.0538	5.49969E-001	3.07491E-009	0.00000E+000	5.50000E-001	8.00223E-005	4	..........a	-327.66
	271	0.0544	5.19769E-001	2.84790E-009	0.00000E+000	5.20000E-001	8.00223E-005	4	..........a	-327.66
	274	0.055	4.89870E-001	2.59889E-009	0.00000E+000	4.90000E-001	8.00223E-005	4	..........a	-327.66
	277	0.0556	4.59770E-001	2.33888E-009	0.00000E+000	4.60000E-001	-3.19978E-004	4	..........a	-327.66
	280	0.0562	4.30070E-001	2.06187E-009	0.00000E+000	4.30000E-001	-4.19978E-004	4	..........a	-327.66
	283	0.0568	4.00070E-001	1.77186E-009	0.00000E+000	4.00000E-001	8.00223E-005	4	..........a	-327.66
	286	0.0574	3.70070E-001	1.46484E-009	0.00000E+000	3.70000E-001	8.00223E-005	4	..........a	-327.66
	289	0.058	3.40070E-001	1.13483E-009	0.00000E+000	3.40000E-001	8.00223E-005	4	..........a	-327.66
	292	0.0586	3.09820E-001	7.84818E-010	0.00000E+000	3.10000E-001	8.00223E-005	4	..........a	-327.66
	295	0.0592	2.79870E-001	4.18804E-010	0.00000E+000	2.80000E-001	8.00223E-005	4	..........a	-327.66
	298	0.0598	2.49870E-001	2.77887E-011	0.00000E+000	2.50000E-001	8.00223E-005	4	..........a	-327.66
	301	0.0604	2.19970E-001	-3.83227E-010	0.00000E+000	2.20000E-001	8.00223E-005	4	..........a	-327.66
	304	0.061	1.90170E-001	-8.28244E-010	0.00000E+000	1.90000E-001	8.00223E-005	4	..........a	-327.66
	307	0.0616	1.59970E-001	-1.28226E-009	0.00000E+000	1.60000E-001	8.00223E-005	4	..........a	-327.66
	310	0.0622	1.30070E-001	-1.76928E-009	0.00000E+000	1.30000E-001	8.00223E-005	4	..........a	-327.66
	313	0.0628	1.00070E-001	-2.27030E-009	0.00000E+000	1.00000E-001	8.00223E-005	4	..........a	-327.66
	316	0.0634	6.99695E-002	-2.79432E-009	0.00000E+000	7.00000E-002	8.00223E-005	4	..........a	-327.66
	319	0.064	3.98695E-002	-3.32534E-009	0.00000E+000	4.00000E-002	8.00223E-005	4	..........a	-327.66
	322	0.0646	1.00695E-002	-3.86436E-009	0.00000E+000	1.00000E-002	8.00223E-005	4	..........a	-327.66
	325	0.0652	-1.99305E-002	-4.40238E-009	0.00000E+000	-2.00000E-002	8.00223E-005	4	..........a	-327.66
	328	0.0658	-4.99305E-002	-4.93140E-009	0.00000E+000	-5.00000E-002	8.00223E-005	4	..........a	-327.66
	331	0.0664	-7.99305E-002	-5.45042E-009	0.00000E+000	-8.00000E-002	8.00223E-005	4	..........a	-327.66
	334	0.067	-1.10030E-001	-5.95444E-009	0.00000E+000	-1.10000E-001	-1.19978E-004	4	..........a	-327.66
	337	0.0676	-1.39830E-001	-6.44246E-009	0.00000E+000	-1.40000E-001	8.00223E-005	4	..........a	-327.66
	340	0.0682	-1.69930E-001	-6.91948E-009	0.00000E+000	-1.70000E-001	8.00223E-005	4	..........a	-327.66
	343	0.0688	-1.99930E-001	-7.37650E-009	0.00000E+000	-2.00000E-001	8.00223E-005	4	..........a	-327.66
	346	0.0694	-2.29830E-001	-7.82451E-009	0.00000E+000	-2.30000E-001	8.00223E-005	4	..........a	-327.66
	349	0.07	-2.59830E-001	-8.26453E-009	0.00000E+000	-2.60000E-001	8.00223E-005	4	..........a	-327.66
	352	0.0706	-2.89930E-001	-8.68355E-009	0.00000E+000	-2.90000E-001	8.00223E-005	4	..........a	-327.66
[...]
	2622	0.5246	-5.89930E-001	-8.48754E-009	0.00000E+000	-5.90000E-001	8.00223E-005	4	..........a	-327.66
	2625	0.5252	-5.79731E-001	-8.70555E-009	0.00000E+000	-5.80000E-001	8.00223E-005	4	..........a	-327.66
	2628	0.5258	-5.49830E-001	-8.67455E-009	0.00000E+000	-5.50000E-001	8.00223E-005	4	..........a	-327.66
	2631	0.5264	-5.20030E-001	-8.57854E-009	0.00000E+000	-5.20000E-001	8.00223E-005	4	..........a	-327.66
	2634	0.527	-4.89930E-001	-8.43554E-009	0.00000E+000	-4.90000E-001	8.00223E-005	4	..........a	-327.66
	2637	0.5276	-4.59830E-001	-8.26053E-009	0.00000E+000	-4.60000E-001	-3.19978E-004	4	..........a	-327.66
	2640	0.5282	-4.29930E-001	-8.06352E-009	0.00000E+000	-4.30000E-001	-1.19978E-004	4	..........a	-327.66
	2643	0.5288	-3.99830E-001	-7.85551E-009	0.00000E+000	-4.00000E-001	8.00223E-005	4	..........a	-327.66
	2646	0.5294	-3.69930E-001	-7.63151E-009	0.00000E+000	-3.70000E-001	-3.19978E-004	4	..........a	-327.66
	2649	0.53	-3.39730E-001	-7.39050E-009	0.00000E+000	-3.40000E-001	8.00223E-005	4	..........a	-327.66
	2652	0.5306	-3.09930E-001	-7.14349E-009	0.00000E+000	-3.10000E-001	8.00223E-005	4	..........a	-327.66
	2655	0.5312	-2.79830E-001	-6.89448E-009	0.00000E+000	-2.80000E-001	8.00223E-005	4	..........a	-327.66
	2658	0.5318	-2.49930E-001	-6.63047E-009	0.00000E+000	-2.50000E-001	8.00223E-005	4	..........a	-327.66
	2661	0.5324	-2.19930E-001	-6.36046E-009	0.00000E+000	-2.20000E-001	8.00223E-005	4	..........a	-327.66
	2664	0.533	-1.90130E-001	-6.08645E-009	0.00000E+000	-1.90000E-001	8.00223E-005	4	..........a	-327.66
	2667	0.5336	-1.59880E-001	-5.80144E-009	0.00000E+000	-1.60000E-001	8.00223E-005	4	..........a	-327.66
	2670	0.5342	-1.29930E-001	-5.51142E-009	0.00000E+000	-1.30000E-001	8.00223E-005	4	..........a	-327.66
	2673	0.5348	-9.98305E-002	-5.21841E-009	0.00000E+000	-1.00000E-001	8.00223E-005	4	..........a	-327.66
	2676	0.5354	-6.98305E-002	-4.91840E-009	0.00000E+000	-7.00000E-002	8.00223E-005	4	..........a	-327.66
	2679	0.536	-3.99305E-002	-4.61439E-009	0.00000E+000	-4.00000E-002	8.00223E-005	4	..........a	-327.66
	2682	0.5366	-9.93048E-003	-4.30238E-009	0.00000E+000	-1.00000E-002	8.00223E-005	4	..........a	-327.66
	2685	0.5372	2.02195E-002	-3.97537E-009	0.00000E+000	2.00000E-002	8.00223E-005	4	..........a	-327.66
	2688	0.5378	5.00695E-002	-3.65835E-009	0.00000E+000	5.00000E-002	8.00223E-005	4	..........a	-327.66
	2691	0.5384	8.01195E-002	-3.32734E-009	0.00000E+000	8.00000E-002	8.00223E-005	4	..........a	-327.66
	2694	0.539	1.10070E-001	-2.98833E-009	0.00000E+000	1.10000E-001	8.00223E-005	4	..........a	-327.66
	2697	0.5396	1.40070E-001	-2.63431E-009	0.00000E+000	1.40000E-001	8.00223E-005	4	..........a	-327.66
	2700	0.5402	1.69970E-001	-2.28030E-009	0.00000E+000	1.70000E-001	8.00223E-005	4	..........a	-327.66
	2703	0.5408	2.00070E-001	-1.89929E-009	0.00000E+000	2.00000E-001	8.00223E-005	4	..........a	-327.66
	2706	0.5414	2.29970E-001	-1.52227E-009	0.00000E+000	2.30000E-001	8.00223E-005	4	..........a	-327.66
	2709	0.542	2.60070E-001	-1.12426E-009	0.00000E+000	2.60000E-001	8.00223E-005	4	..........a	-327.66
	2712	0.5426	2.89970E-001	-7.12240E-010	0.00000E+000	2.90000E-001	8.00223E-005	4	..........a	-327.66
	2715	0.5432	3.20070E-001	-2.94224E-010	0.00000E+000	3.20000E-001	8.00223E-005	4	..........a	-327.66
	2718	0.5438	3.49870E-001	1.49793E-010	0.00000E+000	3.50000E-001	8.00223E-005	4	..........a	-327.66
	2721	0.5444	3.80170E-001	6.03811E-010	0.00000E+000	3.80000E-001	8.00223E-005	4	..........a	-327.66
	2724	0.545	4.09970E-001	1.07283E-009	0.00000E+000	4.10000E-001	8.00223E-005	4	..........a	-327.66
	2727	0.5456	4.39870E-001	1.55385E-009	0.00000E+000	4.40000E-001	-3.19978E-004	4	..........a	-327.66
	2730	0.5462	4.69970E-001	2.05387E-009	0.00000E+000	4.70000E-001	8.00223E-005	4	..........a	-327.66
	2733	0.5468	5.00269E-001	2.57289E-009	0.00000E+000	5.00000E-001	8.00223E-005	4	..........a	-327.66
	2736	0.5474	5.29970E-001	3.11291E-009	0.00000E+000	5.30000E-001	8.00223E-005	4	..........a	-327.66
	2739	0.548	5.59969E-001	3.68193E-009	0.00000E+000	5.60000E-001	8.00223E-005	4	..........a	-327.66
	2742	0.5486	5.89969E-001	4.27295E-009	0.00000E+000	5.90000E-001	8.00223E-005	4	..........a	-327.66
	2745	0.5492	6.19869E-001	4.89698E-009	0.00000E+000	6.20000E-001	8.00223E-005	4	..........a	-327.66
	2748	0.5498	6.49870E-001	5.55400E-009	0.00000E+000	6.50000E-001	8.00223E-005	4	..........a	-327.66
	2751	0.5504	6.79869E-001	6.24703E-009	0.00000E+000	6.80000E-001	8.00223E-005	4	..........a	-327.66
	2754	0.551	7.09870E-001	6.98106E-009	0.00000E+000	7.10000E-001	8.00223E-005	4	..........a	-327.66
	2757	0.5516	7.39869E-001	7.76109E-009	0.00000E+000	7.40000E-001	8.00223E-005	4	..........a	-327.66
	2760	0.5522	7.69769E-001	8.59012E-009	0.00000E+000	7.70000E-001	8.00223E-005	4	..........a	-327.66
	2763	0.5528	7.99719E-001	9.46415E-009	0.00000E+000	8.00000E-001	-2.19978E-004	4	..........a	-327.66
CURVE11	TABLE
	Pt	T	Vf	Im	Vu	Sig	Ach	IERange	Over	Temp
	#	s	V vs. Ref.	A	V	V	V	#	bits	deg C
	2764	0.553	7.89869E-001	9.62616E-009	0.00000E+000	7.90000E-001	8.00223E-005	4	..........a	-327.66
	2765	0.5532	7.79769E-001	9.74216E-009	0.00000E+000	7.80000E-001	-2.19978E-004	4	..........a	-327.66
	2766	0.5534	7.69870E-001	9.81816E-009	0.00000E+000	7.70000E-001	8.00223E-005	4	..........a	-327.66
	2767	0.5536	7.59869E-001	9.87017E-009	0.00000E+000	7.60000E-001	8.00223E-005	4	..........a	-327.66
	2768	0.5538	7.49969E-001	9.90217E-009	0.00000E+000	7.50000E-001	8.00223E-005	4	..........a	-327.66
	2769	0.554	7.40169E-001	9.91817E-009	0.00000E+000	7.40000E-001	8.00223E-005	4	..........a	-327.66
	2770	0.5542	7.29869E-001	9.92217E-009	0.00000E+000	7.30000E-001	1.80022E-004	4	..........a	-327.66
	2771	0.5544	7.19869E-001	9.91317E-009	0.00000E+000	7.20000E-001	8.00223E-005	4	..........a	-327.66
	2772	0.5546	7.09870E-001	9.88817E-009	0.00000E+000	7.10000E-001	8.00223E-005	4	..........a	-327.66
	2773	0.5548	6.99869E-001	9.85817E-009	0.00000E+000	7.00000E-001	8.00223E-005	4	..........a	-327.66
	2774	0.555	6.89869E-001	9.82216E-009	0.00000E+000	6.90000E-001	8.00223E-005	4	..........a	-327.66
	2775	0.5552	6.79869E-001	9.77816E-009	0.00000E+000	6.80000E-001	8.00223E-005	4	..........a	-327.66
	2776	0.5554	6.69969E-001	9.72416E-009	0.00000E+000	6.70000E-001	8.00223E-005	4	..........a	-327.66
	2777	0.5556	6.60069E-001	9.67416E-009	0.00000E+000	6.60000E-001	8.00223E-005	4	..........a	-327.66
	2778	0.5558	6.49969E-001	9.61516E-009	0.00000E+000	6.50000E-001	8.00223E-005	4	..........a	-327.66
	2779	0.556	6.39870E-001	9.54915E-009	0.00000E+000	6.40000E-001	8.00223E-005	4	..........a	-327.66
	2780	0.5562	6.29969E-001	9.48215E-009	0.00000E+000	6.30000E-001	8.00223E-005	4	..........a	-327.66
	2781	0.5564	6.19769E-001	9.41115E-009	0.00000E+000	6.20000E-001	8.00223E-005	4	..........a	-327.66
	2782	0.5566	6.09869E-001	9.33415E-009	0.00000E+000	6.10000E-001	8.00223E-005	4	..........a	-327.66
	2783	0.5568	5.99970E-001	9.25914E-009	0.00000E+000	6.00000E-001	8.00223E-005	4	..........a	-327.66
	2784	0.557	5.89969E-001	9.17814E-009	0.00000E+000	5.90000E-001	8.00223E-005	4	..........a	-327.66
	2785	0.5572	5.80220E-001	9.09514E-009	0.00000E+000	5.80000E-001	8.00223E-005	4	..........a	-327.66
	2786	0.5574	5.69869E-001	9.00813E-009	0.00000E+000	5.70000E-001	8.00223E-005	4	..........a	-327.66
	2787	0.5576	5.59969E-001	8.92413E-009	0.00000E+000	5.60000E-001	8.00223E-005	4	..........a	-327.66
	2788	0.5578	5.49869E-001	8.83213E-009	0.00000E+000	5.50000E-001	8.00223E-005	4	..........a	-327.66
	2789	0.558	5.39970E-001	8.73712E-009	0.00000E+000	5.40000E-001	8.00223E-005	4	..........a	-327.66
	2790	0.5582	5.29920E-001	8.64412E-009	0.00000E+000	5.30000E-001	8.00223E-005	4	..........a	-327.66
	2791	0.5584	5.19769E-001	8.54812E-009	0.00000E+000	5.20000E-001	8.00223E-005	4	..........a	-327.66
	2792	0.5586	5.09769E-001	8.45211E-009	0.00000E+000	5.10000E-001	8.00223E-005	4	..........a	-327.66
	2793	0.5588	4.99670E-001	8.35311E-009	0.00000E+000	5.00000E-001	8.00223E-005	4	..........a	-327.66
	2794	0.559	4.90070E-001	8.25010E-009	0.00000E+000	4.90000E-001	8.00223E-005	4	..........a	-327.66
	2795	0.5592	4.79670E-001	8.14610E-009	0.00000E+000	4.80000E-001	8.00223E-005	4	..........a	-327.66
	2796	0.5594	4.70070E-001	8.04010E-009	0.00000E+000	4.70000E-001	8.00223E-005	4	..........a	-327.66
	2797	0.5596	4.59970E-001	7.93009E-009	0.00000E+000	4.60000E-001	8.00223E-005	4	..........a	-327.66
	2798	0.5598	4.49570E-001	7.82009E-009	0.00000E+000	4.50000E-001	-3.19978E-004	4	..........a	-327.66
	2799	0.56	4.39970E-001	7.71108E-009	0.00000E+000	4.40000E-001	8.00223E-005	4	..........a	-327.66
	2800	0.5602	4.29970E-001	7.59708E-009	0.00000E+000	4.30000E-001	8.00223E-005	4	..........a	-327.66