File: example_project/raw_outputs/20240509_W_GM0016_HL03_E06_CV50.DTA
EXPLAIN
TAG	CV
TITLE	LABEL	Cyclic Voltammetry	Test &Identifier
DATE	LABEL	5/9/2024	Date
TIME	LABEL	13:38:02	Time
NOTES	NOTES	1	&Notes...

PSTAT	PSTAT	REF600P-43058	Potentiostat
VINIT	POTEN	0.00000E+000	T	Initial &E (V)
VLIMIT1	POTEN	8.00000E-001	F	Scan Limit &1 (V)
VLIMIT2	POTEN	-6.00000E-001	F	Scan Limit &2 (V)
VFINAL	POTEN	0.00000E+000	T	Final &E (V)
SCANRATE	QUANT	4.99999E+001	&Scan Rate (mV/s)
STEPSIZE	QUANT	1.00000E+001	St&ep Size (mV)
CYCLES	IQUANT	4	C&ycles (#)
IMODE	SELECTOR	0	I/E Range &Mode
IRANGE	QUANT	1.00000E-005	&Max Current (mA)
AREA	QUANT	1.00000E+000	Electrode &Area (cm^2)
ELECTRODETYPE	SELECTOR	0	Electrode Type
STRIPPING	TOGGLE	F	Used for Stripping
POLARITY	TOGGLE	F	Signal Polarity
CONDIT	TWOPARAM	F	1.50000E+001	0.00000E+000	Conditionin&g	Time(s)	E(V)
DELAY	TWOPARAM	T	1.00000E+001	0.00000E+000	Init. De&lay	Time(s)	Stab.(mV/s)
EQDELAY	QUANT	1.00000E+001	Equil. &Time (s)
IRCOMP	SELECTOR	0	IRCom&p
PFCOR	QUANT	5.00000E+001	PF Corr. (ohm)
SAMPLINGMODE	SELECTOR	1	Sampling &Mode
OCVCURVE	TABLE	39
	Pt	T	Vf	Vm	Ach	Over	Temp
	#	s	V vs. Ref.	V	V	bits	deg C
	0	0.258333	-4.22790E-002	-4.22790E-002	2.30592E-004	..........a	-327.66
	1	0.516667	-4.22838E-002	-4.25283E-002	2.21192E-004	..........a	-327.66
	2	0.775	-4.23109E-002	-4.26545E-002	2.23592E-004	..........a	-327.66
	3	1.03333	-4.23805E-002	-4.27621E-002	2.23192E-004	..........a	-327.66
	4	1.29167	-4.24902E-002	-4.28660E-002	2.22792E-004	..........a	-327.66
	5	1.55	-4.26167E-002	-4.29532E-002	2.24792E-004	..........a	-327.66
	6	1.80833	-4.27383E-002	-4.30377E-002	2.22459E-004	..........a	-327.66
	7	2.06667	-4.28466E-002	-4.31143E-002	2.21926E-004	..........a	-327.66
	8	2.325	-4.29417E-002	-4.31820E-002	2.23392E-004	..........a	-327.66
	9	2.58333	-4.30264E-002	-4.32393E-002	2.22859E-004	..........a	-327.66
	10	2.84167	-4.31026E-002	-4.33092E-002	2.31192E-004	..........a	-327.66
	11	3.1	-4.31725E-002	-4.33757E-002	2.25326E-004	..........a	-327.66
	12	3.35833	-4.32391E-002	-4.34467E-002	2.30259E-004	..........a	-327.66
	13	3.61667	-4.33051E-002	-4.35077E-002	2.16859E-004	..........a	-327.66
	14	3.875	-4.33710E-002	-4.35458E-002	2.35059E-004	..........a	-327.66
	15	4.13333	-4.34348E-002	-4.36260E-002	2.32792E-004	..........a	-327.66
	16	4.39167	-4.34961E-002	-4.37047E-002	2.24992E-004	..........a	-327.66
	17	4.65	-4.35585E-002	-4.37845E-002	2.35059E-004	..........a	-327.66
	18	4.90833	-4.36261E-002	-4.38517E-002	2.27859E-004	..........a	-327.66
	19	5.16667	-4.36981E-002	-4.39033E-002	2.15659E-004	..........a	-327.66
	20	5.425	-4.37698E-002	-4.39583E-002	2.25459E-004	..........a	-327.66
	21	5.68333	-4.38369E-002	-4.40176E-002	2.27326E-004	..........a	-327.66
	22	5.94167	-4.38983E-002	-4.40754E-002	2.20259E-004	..........a	-327.66
	23	6.2	-4.39562E-002	-4.41154E-002	2.32126E-004	..........a	-327.66
	24	6.45833	-4.40114E-002	-4.41619E-002	2.24726E-004	..........a	-327.66
	25	6.71667	-4.40631E-002	-4.41877E-002	2.29126E-004	..........a	-327.66
	26	6.975	-4.41100E-002	-4.42412E-002	2.16192E-004	..........a	-327.66
	27	7.23333	-4.41525E-002	-4.42625E-002	2.28526E-004	..........a	-327.66
	28	7.49167	-4.41917E-002	-4.42948E-002	2.20926E-004	..........a	-327.66
	29	7.75	-4.42281E-002	-4.43369E-002	2.35526E-004	..........a	-327.66
	30	8.00833	-4.42628E-002	-4.43785E-002	2.21659E-004	..........a	-327.66
	31	8.26667	-4.42982E-002	-4.44242E-002	2.25726E-004	..........a	-327.66
	32	8.525	-4.43364E-002	-4.44802E-002	2.10126E-004	..........a	-327.66
	33	8.78333	-4.43784E-002	-4.45148E-002	2.22726E-004	..........a	-327.66
	34	9.04167	-4.44228E-002	-4.45387E-002	2.14926E-004	..........a	-327.66
	35	9.3	-4.44659E-002	-4.45686E-002	2.23726E-004	..........a	-327.66
	36	9.5583	-4.45042E-002	-4.46059E-002	2.27126E-004	..........a	-327.66
	37	9.8167	-4.45383E-002	-4.46450E-002	2.23926E-004	..........a	-327.66
	38	10.075	-4.45713E-002	-4.46829E-002	2.31059E-004	..........a	-327.66
EOC	QUANT	-0.0445713	Open Circuit (V)
PSTATMODEL	IQUANT	7	Pstat Model
PSTATSECTION	LABEL	REF600P-43058	Pstat Section
PSTATSERIALNO	LABEL	43058	Pstat Serial Number
CTRLMODE	IQUANT	1	Control Mode
ELECTROMETER	IQUANT	0	RE=0 or CS=1
IESTAB	IQUANT	2	I/E Stability
CASPEED	IQUANT	4	Control Amp Speed
CONVENTION	IQUANT	1	Current Convention
ICHRANGE	IQUANT	2	Ich Range
ICHRANGEMODE	TOGGLE	F	Ich Auto Range
ICHOFFSETENABLE	TOGGLE	F	Ich Offset Enable
ICHOFFSET	QUANT	0	Ich Offset (V)
ICHFILTER	IQUANT	2	Ich Filter
VCHRANGE	IQUANT	2	Vch Range
VCHRANGEMODE	TOGGLE	F	Vch Auto Range
VCHOFFSETENABLE	TOGGLE	F	Vch Offset Enable
VCHOFFSET	QUANT	0	Vch Offset (V)
VCHFILTER	IQUANT	2	Vch Filter
ACHRANGE	IQUANT	2	Ach Range
ACHOFFSETENABLE	TOGGLE	F	Ach Offset Enable
ACHOFFSET	QUANT	0	Ach Offset (V)
ACHFILTER	IQUANT	1	Ach Filter
IERANGELOWERLIMIT	IQUANT	1	I/E Range Lower Limit
IERANGEMODE	TOGGLE	T	I/E AutoRange
IERANGE	IQUANT	4	I/E Range
POSFEEDENABLE	TOGGLE	F	Positive Feedback IR Comp
POSFEEDRESISTANCE	QUANT	0	Positive Feedback Resistance (ohm)
ACHSELECT	IQUANT	4	Ach Select
SENSECABLEID	IQUANT	7	Sense Cable ID
PWRCABLEID	IQUANT	7	Power Cable ID
DCCALDATE	LABEL	3/22/2024	DC Calibration Date
ACCALDATE	LABEL	3/22/2024	AC Calibration Date
THERMOSELECT	IQUANT	1	Thermo Select
FRAMEWORKVERSION	LABEL	7.8.4	Framework Version
INSTRUMENTVERSION	LABEL	4.42	Instrument Version
CURVE1	TABLE
	Pt	T	Vf	Im	Vu	Sig	Ach	IERange	Over	Temp
	#	s	V vs. Ref.	A	V	V	V	#	bits	deg C
	0	0.2	-4.44909E-002	8.50568E-010	0.00000E+000	-4.45500E-002	9.86092E-004	5	..........a	-327.66
	3	0.8	-1.45314E-002	1.99748E-008	0.00000E+000	-1.45500E-002	9.60392E-004	5	..........a	-327.66
	6	1.4	1.55520E-002	3.05412E-008	0.00000E+000	1.54500E-002	9.85492E-004	5	..........a	-327.66
	9	2	4.55079E-002	3.96912E-008	0.00000E+000	4.54500E-002	9.70992E-004	5	..........a	-327.66
	12	2.6	7.54517E-002	4.84667E-008	0.00000E+000	7.54500E-002	9.70592E-004	5	..........a	-327.66
	15	3.2	1.05495E-001	5.71371E-008	0.00000E+000	1.05450E-001	9.98392E-004	5	..........a	-327.66
	18	3.8	1.35559E-001	6.61857E-008	0.00000E+000	1.35450E-001	9.96592E-004	5	..........a	-327.66
	21	4.4	1.65473E-001	7.61058E-008	0.00000E+000	1.65450E-001	9.89692E-004	5	..........a	-327.66
	24	5	1.95471E-001	8.76422E-008	0.00000E+000	1.95450E-001	1.00249E-003	5	..........a	-327.66
	27	5.6	2.25431E-001	1.02271E-007	0.00000E+000	2.25450E-001	9.90292E-004	5	..........a	-327.66
	30	6.2	2.55530E-001	1.15435E-007	0.00000E+000	2.55450E-001	1.00429E-003	5	..........a	-327.66
	33	6.8	2.85409E-001	1.26585E-007	0.00000E+000	2.85450E-001	9.84692E-004	5	..........a	-327.66
	36	7.4	3.15429E-001	1.38402E-007	0.00000E+000	3.15450E-001	9.91092E-004	5	..........a	-327.66
	39	8	3.45407E-001	1.51211E-007	0.00000E+000	3.45450E-001	9.93892E-004	5	..........a	-327.66
	42	8.6	3.75509E-001	1.65107E-007	0.00000E+000	3.75450E-001	9.94792E-004	5	..........a	-327.66
	45	9.2	4.05399E-001	1.79794E-007	0.00000E+000	4.05450E-001	9.78692E-004	5	..........a	-327.66
	48	9.8	4.35311E-001	1.95458E-007	0.00000E+000	4.35450E-001	9.90292E-004	5	..........a	-327.66
	51	10.4	4.65330E-001	2.11950E-007	0.00000E+000	4.65450E-001	1.00049E-003	5	..........a	-327.66
	54	11	4.95395E-001	2.28319E-007	0.00000E+000	4.95450E-001	9.75092E-004	5	..........a	-327.66
	57	11.6	5.25306E-001	2.45488E-007	0.00000E+000	5.25450E-001	9.88992E-004	5	..........a	-327.66
	60	12.2	5.55301E-001	2.64813E-007	0.00000E+000	5.55450E-001	9.85792E-004	5	..........a	-327.66
	63	12.8	5.85296E-001	2.86797E-007	0.00000E+000	5.85450E-001	9.90592E-004	5	..........a	-327.66
	66	13.4	6.15291E-001	3.10878E-007	0.00000E+000	6.15450E-001	9.90192E-004	5	..........a	-327.66
	69	14	6.45220E-001	3.34139E-007	0.00000E+000	6.45450E-001	9.82792E-004	5	..........a	-327.66
	72	14.6	6.75221E-001	3.57125E-007	0.00000E+000	6.75450E-001	1.00199E-003	5	..........a	-327.66
	75	15.2	7.05256E-001	3.82968E-007	0.00000E+000	7.05450E-001	9.74392E-004	5	..........a	-327.66
	78	15.8	7.35266E-001	4.11203E-007	0.00000E+000	7.35450E-001	9.76992E-004	5	..........a	-327.66
	81	16.4	7.65191E-001	4.42246E-007	0.00000E+000	7.65450E-001	1.00199E-003	5	..........a	-327.66
	84	17	7.95145E-001	4.76889E-007	0.00000E+000	7.95450E-001	9.76192E-004	5	..........a	-327.66
	87	17.6	7.65254E-001	3.31911E-007	0.00000E+000	7.65450E-001	1.00469E-003	5	..........a	-327.66
	90	18.2	7.35390E-001	2.54243E-007	0.00000E+000	7.35450E-001	9.79992E-004	5	..........a	-327.66
	93	18.8	7.05348E-001	2.00757E-007	0.00000E+000	7.05450E-001	9.75492E-004	5	..........a	-327.66
	96	19.4	6.75350E-001	1.60712E-007	0.00000E+000	6.75450E-001	9.86592E-004	5	..........a	-327.66
	99	20	6.45351E-001	1.29284E-007	0.00000E+000	6.45450E-001	9.89192E-004	5	..........a	-327.66
	102	20.6	6.15450E-001	1.03976E-007	0.00000E+000	6.15450E-001	9.81592E-004	5	..........a	-327.66
	105	21.2	5.85402E-001	8.30417E-008	0.00000E+000	5.85450E-001	9.76792E-004	5	..........a	-327.66
	108	21.8	5.55418E-001	6.54227E-008	0.00000E+000	5.55450E-001	9.80792E-004	5	..........a	-327.66
	111	22.4	5.25411E-001	5.01685E-008	0.00000E+000	5.25450E-001	9.74792E-004	5	..........a	-327.66
	114	23	4.95490E-001	3.66724E-008	0.00000E+000	4.95450E-001	9.82892E-004	5	..........a	-327.66
	117	23.6	4.65418E-001	2.44980E-008	0.00000E+000	4.65450E-001	9.83992E-004	5	..........a	-327.66
	120	24.2	4.35406E-001	1.32640E-008	0.00000E+000	4.35450E-001	9.91592E-004	5	..........a	-327.66
	123	24.8	4.05472E-001	2.43316E-009	0.00000E+000	4.05450E-001	9.84492E-004	5	..........a	-327.66
	126	25.4	3.75561E-001	-8.00828E-009	0.00000E+000	3.75450E-001	9.81492E-004	5	..........a	-327.66
	129	26	3.45479E-001	-1.78206E-008	0.00000E+000	3.45450E-001	9.62892E-004	5	..........a	-327.66
	132	26.6	3.15491E-001	-2.70442E-008	0.00000E+000	3.15450E-001	9.84092E-004	5	..........a	-327.66
	135	27.2	2.85485E-001	-3.59058E-008	0.00000E+000	2.85450E-001	9.94892E-004	5	..........a	-327.66
	138	27.8	2.55567E-001	-4.43398E-008	0.00000E+000	2.55450E-001	9.70392E-004	5	..........a	-327.66
	141	28.4	2.25495E-001	-5.22779E-008	0.00000E+000	2.25450E-001	9.82992E-004	5	..........a	-327.66
	144	29	1.95551E-001	-5.98202E-008	0.00000E+000	1.95450E-001	9.74192E-004	5	..........a	-327.66
	147	29.6	1.65542E-001	-6.67413E-008	0.00000E+000	1.65450E-001	9.79292E-004	5	..........a	-327.66
	150	30.2	1.35600E-001	-7.27658E-008	0.00000E+000	1.35450E-001	9.96292E-004	5	..........a	-327.66
	153	30.8	1.05540E-001	-7.82561E-008	0.00000E+000	1.05450E-001	9.93692E-004	5	..........a	-327.66
	156	31.4	7.55313E-002	-8.35855E-008	0.00000E+000	7.54500E-002	9.94692E-004	5	..........a	-327.66
	159	32	4.55887E-002	-8.83989E-008	0.00000E+000	4.54500E-002	9.80592E-004	5	..........a	-327.66
	162	32.6	1.55955E-002	-9.30836E-008	0.00000E+000	1.54500E-002	9.81092E-004	5	..........a	-327.66
	165	33.2	-1.44369E-002	-1.00106E-007	0.00000E+000	-1.45500E-002	9.99992E-004	5	..........a	-327.66
	168	33.8	-4.44254E-002	-1.03141E-007	0.00000E+000	-4.45500E-002	9.70592E-004	5	..........a	-327.66
	171	34.4	-7.44351E-002	-1.08266E-007	0.00000E+000	-7.45500E-002	9.76592E-004	5	..........a	-327.66
	174	35	-1.04388E-001	-1.13439E-007	0.00000E+000	-1.04550E-001	9.82592E-004	5	..........a	-327.66
	177	35.6	-1.34458E-001	-1.18508E-007	0.00000E+000	-1.34550E-001	9.91892E-004	5	..........a	-327.66
	180	36.2	-1.64380E-001	-1.23607E-007	0.00000E+000	-1.64550E-001	9.79392E-004	5	..........a	-327.66
	183	36.8	-1.94424E-001	-1.29237E-007	0.00000E+000	-1.94550E-001	9.79392E-004	5	..........a	-327.66
	186	37.4	-2.24364E-001	-1.36312E-007	0.00000E+000	-2.24550E-001	9.81092E-004	5	..........a	-327.66
	189	38	-2.54417E-001	-1.42630E-007	0.00000E+000	-2.54550E-001	9.79492E-004	5	..........a	-327.66
	192	38.6	-2.84387E-001	-1.47767E-007	0.00000E+000	-2.84550E-001	9.70892E-004	5	..........a	-327.66
	195	39.2	-3.14363E-001	-1.54968E-007	0.00000E+000	-3.14550E-001	9.73292E-004	5	..........a	-327.66
	198	39.8	-3.44338E-001	-1.61977E-007	0.00000E+000	-3.44550E-001	9.79292E-004	5	..........a	-327.66
	201	40.4	-3.74363E-001	-1.64354E-007	0.00000E+000	-3.74550E-001	9.91292E-004	5	..........a	-327.66
	204	41	-4.04363E-001	-1.69037E-007	0.00000E+000	-4.04550E-001	9.85492E-004	5	..........a	-327.66
	207	41.6	-4.34326E-001	-1.73921E-007	0.00000E+000	-4.34550E-001	9.74892E-004	5	..........a	-327.66
	210	42.2	-4.64293E-001	-1.78806E-007	0.00000E+000	-4.64550E-001	9.81692E-004	5	..........a	-327.66
	213	42.8	-4.94329E-001	-1.84832E-007	0.00000E+000	-4.94550E-001	9.74392E-004	5	..........a	-327.66
	216	43.4	-5.24328E-001	-1.90822E-007	0.00000E+000	-5.24550E-001	9.93992E-004	5	..........a	-327.66
	219	44	-5.54292E-001	-1.97897E-007	0.00000E+000	-5.54550E-001	9.80892E-004	5	..........a	-327.66
	222	44.6	-5.84312E-001	-2.04682E-007	0.00000E+000	-5.84550E-001	9.79492E-004	5	..........a	-327.66
	223	44.8	-5.94252E-001	-2.07297E-007	0.00000E+000	-5.94550E-001	9.83192E-004	5	..........a	-327.66
CURVE2	TABLE
	Pt	T	Vf	Im	Vu	Sig	Ach	IERange	Over	Temp
	#	s	V vs. Ref.	A	V	V	V	#	bits	deg C
	224	45	-5.89792E-001	-1.88800E-007	0.00000E+000	-5.90000E-001	9.72492E-004	5	..........a	-327.66
	227	45.6	-5.59839E-001	-1.45525E-007	0.00000E+000	-5.60000E-001	9.88492E-004	5	..........a	-327.66
	230	46.2	-5.29820E-001	-1.19567E-007	0.00000E+000	-5.30000E-001	9.89992E-004	5	..........a	-327.66
	233	46.8	-4.99800E-001	-9.95147E-008	0.00000E+000	-5.00000E-001	9.71292E-004	5	..........a	-327.66
	236	47.4	-4.69827E-001	-8.23642E-008	0.00000E+000	-4.70000E-001	9.67792E-004	5	..........a	-327.66
	239	48	-4.39815E-001	-6.71606E-008	0.00000E+000	-4.40000E-001	9.79492E-004	5	..........a	-327.66
	242	48.6	-4.09857E-001	-5.37840E-008	0.00000E+000	-4.10000E-001	9.95492E-004	5	..........a	-327.66
	245	49.2	-3.79828E-001	-4.20092E-008	0.00000E+000	-3.80000E-001	9.82992E-004	5	..........a	-327.66
	248	49.8	-3.49864E-001	-3.11160E-008	0.00000E+000	-3.50000E-001	9.81092E-004	5	..........a	-327.66
	251	50.4	-3.19865E-001	-2.13348E-008	0.00000E+000	-3.20000E-001	9.68292E-004	5	..........a	-327.66
	254	51	-2.89907E-001	-1.22040E-008	0.00000E+000	-2.90000E-001	9.89492E-004	5	..........a	-327.66
	257	51.6	-2.59835E-001	-3.64999E-009	0.00000E+000	-2.60000E-001	9.64792E-004	5	..........a	-327.66
	260	52.2	-2.29955E-001	4.72408E-009	0.00000E+000	-2.30000E-001	1.00549E-003	5	..........a	-327.66
	263	52.8	-1.99990E-001	1.29332E-008	0.00000E+000	-2.00000E-001	9.92892E-004	5	..........a	-327.66
	266	53.4	-1.69905E-001	2.08581E-008	0.00000E+000	-1.70000E-001	9.80392E-004	5	..........a	-327.66
	269	54	-1.39912E-001	2.86174E-008	0.00000E+000	-1.40000E-001	9.85792E-004	5	..........a	-327.66
	272	54.6	-1.09965E-001	3.63402E-008	0.00000E+000	-1.10000E-001	9.88792E-004	5	..........a	-327.66
	275	55.2	-8.00078E-002	4.40987E-008	0.00000E+000	-8.00000E-002	9.99092E-004	5	..........a	-327.66
	278	55.8	-4.99134E-002	5.16903E-008	0.00000E+000	-5.00000E-002	9.90792E-004	5	..........a	-327.66
	281	56.4	-1.99525E-002	5.93997E-008	0.00000E+000	-2.00000E-002	9.81492E-004	5	..........a	-327.66
	284	57	1.00780E-002	6.70896E-008	0.00000E+000	1.00000E-002	9.94892E-004	5	..........a	-327.66
	287	57.6	4.00413E-002	7.49007E-008	0.00000E+000	4.00000E-002	9.59492E-004	5	..........a	-327.66
	290	58.2	6.99799E-002	8.28994E-008	0.00000E+000	7.00000E-002	9.96192E-004	5	..........a	-327.66
	293	58.8	1.00048E-001	9.11928E-008	0.00000E+000	1.00000E-001	9.63892E-004	5	..........a	-327.66
	296	59.4	1.29993E-001	1.00946E-007	0.00000E+000	1.30000E-001	9.90492E-004	5	..........a	-327.66
	299	60	1.60016E-001	1.08600E-007	0.00000E+000	1.60000E-001	9.91592E-004	5	..........a	-327.66
	302	60.6	1.90062E-001	1.17731E-007	0.00000E+000	1.90000E-001	9.70592E-004	5	..........a	-327.66
	305	61.2	2.20013E-001	1.26686E-007	0.00000E+000	2.20000E-001	9.76992E-004	5	..........a	-327.66
	308	61.8	2.49933E-001	1.35130E-007	0.00000E+000	2.50000E-001	9.88592E-004	5	..........a	-327.66
	311	62.4	2.79923E-001	1.43874E-007	0.00000E+000	2.80000E-001	9.78592E-004	5	..........a	-327.66
	314	63	3.09999E-001	1.52838E-007	0.00000E+000	3.10000E-001	9.93192E-004	5	..........a	-327.66
	317	63.6	3.39969E-001	1.62196E-007	0.00000E+000	3.40000E-001	9.64392E-004	5	..........a	-327.66
	320	64.2	3.69943E-001	1.71711E-007	0.00000E+000	3.70000E-001	9.77992E-004	5	..........a	-327.66
	323	64.8	3.99922E-001	1.81456E-007	0.00000E+000	4.00000E-001	9.75192E-004	5	..........a	-327.66
	326	65.4	4.29962E-001	1.91374E-007	0.00000E+000	4.30000E-001	1.00329E-003	5	..........a	-327.66
	329	66	4.59898E-001	2.01414E-007	0.00000E+000	4.60000E-001	9.90292E-004	5	..........a	-327.66
	332	66.6	4.89883E-001	2.11555E-007	0.00000E+000	4.90000E-001	9.79292E-004	5	..........a	-327.66
	335	67.2	5.19883E-001	2.22113E-007	0.00000E+000	5.20000E-001	9.81292E-004	5	..........a	-327.66
	338	67.8	5.49935E-001	2.33278E-007	0.00000E+000	5.50000E-001	9.88092E-004	5	..........a	-327.66
	341	68.4	5.79884E-001	2.46341E-007	0.00000E+000	5.80000E-001	9.78592E-004	5	..........a	-327.66
	344	69	6.09883E-001	2.61376E-007	0.00000E+000	6.10000E-001	9.83092E-004	5	..........a	-327.66
	347	69.6	6.39805E-001	2.78535E-007	0.00000E+000	6.40000E-001	9.83992E-004	5	..........a	-327.66
	350	70.2	6.69887E-001	2.98068E-007	0.00000E+000	6.70000E-001	9.92392E-004	5	..........a	-327.66
	353	70.8	6.99795E-001	3.20278E-007	0.00000E+000	7.00000E-001	9.83892E-004	5	..........a	-327.66
	356	71.4	7.29791E-001	3.45756E-007	0.00000E+000	7.30000E-001	9.81892E-004	5	..........a	-327.66
	359	72	7.59778E-001	3.75031E-007	0.00000E+000	7.60000E-001	9.78692E-004	5	..........a	-327.66
[...]
	979	196	2.40073E-001	-5.18781E-008	0.00000E+000	2.40000E-001	9.89392E-004	5	..........a	-327.66
	982	196.6	2.10055E-001	-5.85616E-008	0.00000E+000	2.10000E-001	9.71492E-004	5	..........a	-327.66
	985	197.2	1.80137E-001	-6.47675E-008	0.00000E+000	1.80000E-001	9.51992E-004	5	..........a	-327.66
	988	197.8	1.50107E-001	-7.05361E-008	0.00000E+000	1.50000E-001	9.86492E-004	5	..........a	-327.66
	991	198.4	1.20109E-001	-7.59481E-008	0.00000E+000	1.20000E-001	9.93292E-004	5	..........a	-327.66
	994	199	9.01337E-002	-8.11297E-008	0.00000E+000	9.00000E-002	9.69892E-004	5	..........a	-327.66
	997	199.6	6.01642E-002	-8.53921E-008	0.00000E+000	6.00000E-002	9.66292E-004	5	..........a	-327.66
	1000	200.2	3.01098E-002	-8.99535E-008	0.00000E+000	3.00000E-002	9.79792E-004	5	..........a	-327.66
	1003	200.8	1.00192E-004	-9.53023E-008	0.00000E+000	7.45058E-009	9.89492E-004	5	..........a	-327.66
	1006	201.4	-2.98863E-002	-9.92645E-008	0.00000E+000	-3.00000E-002	9.78292E-004	5	..........a	-327.66
	1009	202	-5.98144E-002	-1.04047E-007	0.00000E+000	-6.00000E-002	9.72392E-004	5	..........a	-327.66
	1012	202.6	-8.98590E-002	-1.09501E-007	0.00000E+000	-9.00000E-002	9.77092E-004	5	..........a	-327.66
	1015	203.2	-1.19880E-001	-1.15212E-007	0.00000E+000	-1.20000E-001	9.62792E-004	5	..........a	-327.66
	1018	203.8	-1.49899E-001	-1.21174E-007	0.00000E+000	-1.50000E-001	9.64692E-004	5	..........a	-327.66
	1021	204.4	-1.79816E-001	-1.27416E-007	0.00000E+000	-1.80000E-001	9.63992E-004	5	..........a	-327.66
	1024	205	-2.09853E-001	-1.28952E-007	0.00000E+000	-2.10000E-001	9.62092E-004	5	..........a	-327.66
	1027	205.6	-2.39833E-001	-1.35118E-007	0.00000E+000	-2.40000E-001	9.68792E-004	5	..........a	-327.66
	1030	206.2	-2.69827E-001	-1.42548E-007	0.00000E+000	-2.70000E-001	9.76992E-004	5	..........a	-327.66
	1033	206.8	-2.99797E-001	-1.49227E-007	0.00000E+000	-3.00000E-001	9.72392E-004	5	..........a	-327.66
	1036	207.4	-3.29847E-001	-1.55216E-007	0.00000E+000	-3.30000E-001	9.63492E-004	5	..........a	-327.66
	1039	208	-3.59844E-001	-1.61044E-007	0.00000E+000	-3.60000E-001	9.89192E-004	5	..........a	-327.66
	1042	208.6	-3.89837E-001	-1.66493E-007	0.00000E+000	-3.90000E-001	9.80092E-004	5	..........a	-327.66
	1045	209.2	-4.19714E-001	-1.71393E-007	0.00000E+000	-4.20000E-001	9.59892E-004	5	..........a	-327.66
	1048	209.8	-4.49806E-001	-1.75766E-007	0.00000E+000	-4.50000E-001	9.63092E-004	5	..........a	-327.66
	1051	210.4	-4.79795E-001	-1.80332E-007	0.00000E+000	-4.80000E-001	9.83192E-004	5	..........a	-327.66
	1054	211	-5.09796E-001	-1.85084E-007	0.00000E+000	-5.10000E-001	9.66592E-004	5	..........a	-327.66
	1057	211.6	-5.39714E-001	-1.90499E-007	0.00000E+000	-5.40000E-001	9.62992E-004	5	..........a	-327.66
	1060	212.2	-5.69796E-001	-1.96305E-007	0.00000E+000	-5.70000E-001	9.75392E-004	5	..........a	-327.66
	1063	212.8	-5.99798E-001	-2.02733E-007	0.00000E+000	-6.00000E-001	9.64392E-004	5	..........a	-327.66
CURVE5	TABLE
	Pt	T	Vf	Im	Vu	Sig	Ach	IERange	Over	Temp
	#	s	V vs. Ref.	A	V	V	V	#	bits	deg C
	1064	213	-5.89815E-001	-1.75999E-007	0.00000E+000	-5.90000E-001	9.72192E-004	5	..........a	-327.66
	1065	213.2	-5.79778E-001	-1.59538E-007	0.00000E+000	-5.80000E-001	9.61292E-004	5	..........a	-327.66
	1066	213.4	-5.69807E-001	-1.46897E-007	0.00000E+000	-5.70000E-001	9.79292E-004	5	..........a	-327.66
	1067	213.6	-5.59817E-001	-1.36240E-007	0.00000E+000	-5.60000E-001	9.79392E-004	5	..........a	-327.66
	1068	213.8	-5.49834E-001	-1.26973E-007	0.00000E+000	-5.50000E-001	9.57392E-004	5	..........a	-327.66
	1069	214	-5.39745E-001	-1.18507E-007	0.00000E+000	-5.40000E-001	9.66592E-004	5	..........a	-327.66
	1070	214.2	-5.29823E-001	-1.10902E-007	0.00000E+000	-5.30000E-001	9.74592E-004	5	..........a	-327.66
	1071	214.4	-5.19818E-001	-1.03941E-007	0.00000E+000	-5.20000E-001	9.77192E-004	5	..........a	-327.66
	1072	214.6	-5.09827E-001	-9.73923E-008	0.00000E+000	-5.10000E-001	9.60892E-004	5	..........a	-327.66
	1073	214.8	-4.99814E-001	-9.11928E-008	0.00000E+000	-5.00000E-001	9.61792E-004	5	..........a	-327.66
	1074	215	-4.89827E-001	-8.53758E-008	0.00000E+000	-4.90000E-001	9.80192E-004	5	..........a	-327.66
	1075	215.2	-4.79853E-001	-7.98040E-008	0.00000E+000	-4.80000E-001	9.90692E-004	5	..........a	-327.66
	1076	215.4	-4.69844E-001	-7.45510E-008	0.00000E+000	-4.70000E-001	9.71792E-004	5	..........a	-327.66
	1077	215.6	-4.59792E-001	-6.95140E-008	0.00000E+000	-4.60000E-001	9.65492E-004	5	..........a	-327.66
	1078	215.8	-4.49838E-001	-6.47536E-008	0.00000E+000	-4.50000E-001	9.58692E-004	5	..........a	-327.66
	1079	216	-4.39836E-001	-6.05560E-008	0.00000E+000	-4.40000E-001	9.71092E-004	5	..........a	-327.66
	1080	216.2	-4.29849E-001	-5.60025E-008	0.00000E+000	-4.30000E-001	9.57792E-004	5	..........a	-327.66
	1081	216.4	-4.19816E-001	-5.17153E-008	0.00000E+000	-4.20000E-001	9.52292E-004	5	..........a	-327.66
	1082	216.6	-4.09886E-001	-4.76296E-008	0.00000E+000	-4.10000E-001	9.67692E-004	5	..........a	-327.66
	1083	216.8	-3.99864E-001	-4.36484E-008	0.00000E+000	-4.00000E-001	9.68192E-004	5	..........a	-327.66
	1084	217	-3.89887E-001	-3.98192E-008	0.00000E+000	-3.90000E-001	9.76892E-004	5	..........a	-327.66
	1085	217.2	-3.79840E-001	-3.61616E-008	0.00000E+000	-3.80000E-001	9.65292E-004	5	..........a	-327.66
	1086	217.4	-3.69865E-001	-3.26317E-008	0.00000E+000	-3.70000E-001	9.63092E-004	5	..........a	-327.66
	1087	217.6	-3.59884E-001	-2.91501E-008	0.00000E+000	-3.60000E-001	9.77692E-004	5	..........a	-327.66
	1088	217.8	-3.49875E-001	-2.57795E-008	0.00000E+000	-3.50000E-001	9.74092E-004	5	..........a	-327.66
	1089	218	-3.39829E-001	-2.26202E-008	0.00000E+000	-3.40000E-001	9.72192E-004	5	..........a	-327.66
	1090	218.2	-3.29884E-001	-1.93570E-008	0.00000E+000	-3.30000E-001	9.88492E-004	5	..........a	-327.66
	1091	218.4	-3.19866E-001	-1.62509E-008	0.00000E+000	-3.20000E-001	9.61492E-004	5	..........a	-327.66
	1092	218.6	-3.09910E-001	-1.31825E-008	0.00000E+000	-3.10000E-001	9.82092E-004	5	..........a	-327.66
	1093	218.8	-2.99855E-001	-1.02029E-008	0.00000E+000	-3.00000E-001	9.60692E-004	5	..........a	-327.66
	1094	219	-2.89913E-001	-7.21948E-009	0.00000E+000	-2.90000E-001	9.87792E-004	5	..........a	-327.66
	1095	219.2	-2.79867E-001	-4.30998E-009	0.00000E+000	-2.80000E-001	9.74492E-004	5	..........a	-327.66
	1096	219.4	-2.69894E-001	-1.46203E-009	0.00000E+000	-2.70000E-001	9.64392E-004	5	..........a	-327.66
	1097	219.6	-2.59845E-001	1.39604E-009	0.00000E+000	-2.60000E-001	9.56192E-004	5	..........a	-327.66
	1098	219.8	-2.49905E-001	4.21492E-009	0.00000E+000	-2.50000E-001	9.75692E-004	5	..........a	-327.66
	1099	220	-2.39934E-001	7.00396E-009	0.00000E+000	-2.40000E-001	9.71592E-004	5	..........a	-327.66
	1100	220.2	-2.29956E-001	9.67883E-009	0.00000E+000	-2.30000E-001	9.73992E-004	5	..........a	-327.66
	1101	220.4	-2.19897E-001	1.23767E-008	0.00000E+000	-2.20000E-001	9.64592E-004	5	..........a	-327.66
	1102	220.6	-2.09927E-001	1.50911E-008	0.00000E+000	-2.10000E-001	9.65692E-004	5	..........a	-327.66
	1103	220.8	-1.99989E-001	1.77844E-008	0.00000E+000	-2.00000E-001	9.86992E-004	5	..........a	-327.66
	1104	221	-1.90054E-001	2.04212E-008	0.00000E+000	-1.90000E-001	9.72092E-004	5	..........a	-327.66
	1105	221.2	-1.79951E-001	2.30806E-008	0.00000E+000	-1.80000E-001	9.69492E-004	5	..........a	-327.66
	1106	221.4	-1.69906E-001	2.57006E-008	0.00000E+000	-1.70000E-001	9.70092E-004	5	..........a	-327.66
	1107	221.6	-1.60029E-001	2.82814E-008	0.00000E+000	-1.60000E-001	9.78992E-004	5	..........a	-327.66
	1108	221.8	-1.49971E-001	3.09150E-008	0.00000E+000	-1.50000E-001	9.83092E-004	5	..........a	-327.66
	1109	222	-1.39921E-001	3.35495E-008	0.00000E+000	-1.40000E-001	9.64692E-004	5	..........a	-327.66
	1110	222.2	-1.29944E-001	3.59524E-008	0.00000E+000	-1.30000E-001	9.76192E-004	5	..........a	-327.66
	1111	222.4	-1.19975E-001	3.86680E-008	0.00000E+000	-1.20000E-001	9.76192E-004	5	..........a	-327.66
	1112	222.6	-1.09998E-001	4.13090E-008	0.00000E+000	-1.10000E-001	9.73492E-004	5	..........a	-327.66
	1113	222.8	-9.99493E-002	4.38961E-008	0.00000E+000	-1.00000E-001	9.68692E-004	5	..........a	-327.66
	1114	223	-8.99265E-002	4.65022E-008	0.00000E+000	-9.00000E-002	9.76392E-004	5	..........a	-327.66
	1115	223.2	-8.00073E-002	4.90031E-008	0.00000E+000	-8.00000E-002	9.94792E-004	5	..........a	-327.66
	1116	223.4	-6.99421E-002	5.15082E-008	0.00000E+000	-7.00000E-002	9.77092E-004	5	..........a	-327.66
	1117	223.6	-5.99284E-002	5.40570E-008	0.00000E+000	-6.00000E-002	9.68592E-004	5	..........a	-327.66
	1118	223.8	-4.99219E-002	5.65428E-008	0.00000E+000	-5.00000E-002	9.79092E-004	5	..........a	-327.66