File: example_project/raw_outputs/20240424_P_GM0016_HL03_E04_CV50K.DTA
EXPLAIN
TAG	CV
TITLE	LABEL	Cyclic Voltammetry	Test &Identifier
DATE	LABEL	4/24/2024	Date
TIME	LABEL	17:38:59	Time
NOTES	NOTES	1	&Notes...

PSTAT	PSTAT	REF600P-43058	Potentiostat
VINIT	POTEN	0.00000E+000	T	Initial &E (V)
VLIMIT1	POTEN	-6.00000E-001	F	Scan Limit &1 (V)
VLIMIT2	POTEN	8.00000E-001	F	Scan Limit &2 (V)
VFINAL	POTEN	0.00000E+000	T	Final &E (V)
SCANRATE	QUANT	4.99999E+004	&Scan Rate (mV/s)
STEPSIZE	QUANT	1.00000E+001	St&ep Size (mV)
CYCLES	IQUANT	10	C&ycles (#)
IMODE	SELECTOR	0	I/E Range &Mode
IRANGE	QUANT	1.00000E-005	&Max Current (mA)
AREA	QUANT	1.00000E+000	Electrode &Area (cm^2)
ELECTRODETYPE	SELECTOR	0	Electrode Type
STRIPPING	TOGGLE	F	Used for Stripping
POLARITY	TOGGLE	F	Signal Polarity
CONDIT	TWOPARAM	F	1.50000E+001	0.00000E+000	Conditionin&g	Time(s)	E(V)
DELAY	TWOPARAM	T	1.00000E+001	0.00000E+000	Init. De&lay	Time(s)	Stab.(mV/s)
EQDELAY	QUANT	1.00000E+001	Equil. &Time (s)
IRCOMP	SELECTOR	0	IRCom&p
PFCOR	QUANT	5.00000E+001	PF Corr. (ohm)
SAMPLINGMODE	SELECTOR	1	Sampling &Mode
OCVCURVE	TABLE	39
	Pt	T	Vf	Vm	Ach	Over	Temp
	#	s	V vs. Ref.	V	V	bits	deg C
	0	0.258333	-9.81252E-002	-9.81252E-002	2.14792E-004	..........a	-327.66
	1	0.516667	-9.81308E-002	-9.84170E-002	2.15459E-004	..........a	-327.66
	2	0.775	-9.81653E-002	-9.87107E-002	2.11192E-004	..........a	-327.66
	3	1.03333	-9.82643E-002	-9.89974E-002	2.20859E-004	..........a	-327.66
	4	1.29167	-9.84439E-002	-9.92800E-002	2.14859E-004	..........a	-327.66
	5	1.55	-9.86873E-002	-9.95547E-002	2.16259E-004	..........a	-327.66
	6	1.80833	-9.89630E-002	-9.98310E-002	2.14126E-004	..........a	-327.66
	7	2.06667	-9.92473E-002	-1.00100E-001	2.15059E-004	..........a	-327.66
	8	2.325	-9.95289E-002	-1.00359E-001	2.07926E-004	..........a	-327.66
	9	2.58333	-9.98045E-002	-1.00627E-001	2.06192E-004	..........a	-327.66
	10	2.84167	-1.00075E-001	-1.00882E-001	2.14526E-004	..........a	-327.66
	11	3.1	-1.00340E-001	-1.01141E-001	2.18659E-004	..........a	-327.66
	12	3.35833	-1.00602E-001	-1.01388E-001	2.12059E-004	..........a	-327.66
	13	3.61667	-1.00861E-001	-1.01632E-001	2.08926E-004	..........a	-327.66
	14	3.875	-1.01115E-001	-1.01878E-001	2.11592E-004	..........a	-327.66
	15	4.13333	-1.01366E-001	-1.02120E-001	2.11059E-004	..........a	-327.66
	16	4.39167	-1.01613E-001	-1.02363E-001	2.19459E-004	..........a	-327.66
	17	4.65	-1.01857E-001	-1.02591E-001	2.22259E-004	..........a	-327.66
	18	4.90833	-1.02098E-001	-1.02764E-001	2.17592E-004	..........a	-327.66
	19	5.16667	-1.02329E-001	-1.02902E-001	2.19926E-004	..........a	-327.66
	20	5.425	-1.02540E-001	-1.03028E-001	2.04859E-004	..........a	-327.66
	21	5.68333	-1.02722E-001	-1.03138E-001	2.25259E-004	..........a	-327.66
	22	5.94167	-1.02877E-001	-1.03249E-001	2.06326E-004	..........a	-327.66
	23	6.2	-1.03010E-001	-1.03369E-001	2.10592E-004	..........a	-327.66
	24	6.45833	-1.03130E-001	-1.03474E-001	2.25326E-004	..........a	-327.66
	25	6.71667	-1.03245E-001	-1.03609E-001	2.15859E-004	..........a	-327.66
	26	6.975	-1.03359E-001	-1.03732E-001	2.11926E-004	..........a	-327.66
	27	7.23333	-1.03477E-001	-1.03858E-001	2.17059E-004	..........a	-327.66
	28	7.49167	-1.03598E-001	-1.03992E-001	2.09592E-004	..........a	-327.66
	29	7.75	-1.03723E-001	-1.04124E-001	2.04592E-004	..........a	-327.66
	30	8.00833	-1.03852E-001	-1.04263E-001	2.20726E-004	..........a	-327.66
	31	8.26667	-1.03983E-001	-1.04405E-001	2.12459E-004	..........a	-327.66
	32	8.525	-1.04117E-001	-1.04551E-001	2.04926E-004	..........a	-327.66
	33	8.78333	-1.04255E-001	-1.04697E-001	2.04526E-004	..........a	-327.66
	34	9.04167	-1.04397E-001	-1.04851E-001	2.09992E-004	..........a	-327.66
	35	9.3	-1.04541E-001	-1.05011E-001	1.98592E-004	..........a	-327.66
	36	9.5583	-1.04690E-001	-1.05170E-001	2.10259E-004	..........a	-327.66
	37	9.8167	-1.04843E-001	-1.05334E-001	2.11059E-004	..........a	-327.66
	38	10.075	-1.05000E-001	-1.05504E-001	2.05659E-004	..........a	-327.66
EOC	QUANT	-0.1050001	Open Circuit (V)
PSTATMODEL	IQUANT	7	Pstat Model
PSTATSECTION	LABEL	REF600P-43058	Pstat Section
PSTATSERIALNO	LABEL	43058	Pstat Serial Number
CTRLMODE	IQUANT	1	Control Mode
ELECTROMETER	IQUANT	0	RE=0 or CS=1
IESTAB	IQUANT	2	I/E Stability
CASPEED	IQUANT	4	Control Amp Speed
CONVENTION	IQUANT	1	Current Convention
ICHRANGE	IQUANT	2	Ich Range
ICHRANGEMODE	TOGGLE	F	Ich Auto Range
ICHOFFSETENABLE	TOGGLE	F	Ich Offset Enable
ICHOFFSET	QUANT	0	Ich Offset (V)
ICHFILTER	IQUANT	1	Ich Filter
VCHRANGE	IQUANT	2	Vch Range
VCHRANGEMODE	TOGGLE	F	Vch Auto Range
VCHOFFSETENABLE	TOGGLE	F	Vch Offset Enable
VCHOFFSET	QUANT	0	Vch Offset (V)
VCHFILTER	IQUANT	1	Vch Filter
ACHRANGE	IQUANT	2	Ach Range
ACHOFFSETENABLE	TOGGLE	F	Ach Offset Enable
ACHOFFSET	QUANT	0	Ach Offset (V)
ACHFILTER	IQUANT	1	Ach Filter
IERANGELOWERLIMIT	IQUANT	1	I/E Range Lower Limit
IERANGEMODE	TOGGLE	T	I/E AutoRange
IERANGE	IQUANT	4	I/E Range
POSFEEDENABLE	TOGGLE	F	Positive Feedback IR Comp
POSFEEDRESISTANCE	QUANT	0	Positive Feedback Resistance (ohm)
ACHSELECT	IQUANT	4	Ach Select
SENSECABLEID	IQUANT	7	Sense Cable ID
PWRCABLEID	IQUANT	7	Power Cable ID
DCCALDATE	LABEL	3/22/2024	DC Calibration Date
ACCALDATE	LABEL	3/22/2024	AC Calibration Date
THERMOSELECT	IQUANT	1	Thermo Select
FRAMEWORKVERSION	LABEL	7.8.4	Framework Version
INSTRUMENTVERSION	LABEL	4.42	Instrument Version
CURVE1	TABLE
	Pt	T	Vf	Im	Vu	Sig	Ach	IERange	Over	Temp
	#	s	V vs. Ref.	A	V	V	V	#	bits	deg C
	0	0.0002	-1.05153E-001	3.05004E-007	0.00000E+000	-1.05000E-001	-2.18408E-004	8	..........a	-327.66
	2	0.0006	-1.24953E-001	-1.35506E-006	0.00000E+000	-1.25000E-001	8.15923E-005	8	..........a	-327.66
	4	0.001	-1.45253E-001	-2.43510E-006	0.00000E+000	-1.45000E-001	8.15923E-005	8	..........a	-327.66
	6	0.0014	-1.65153E-001	-3.23513E-006	0.00000E+000	-1.65000E-001	8.15923E-005	8	..........a	-327.66
	8	0.0018	-1.85053E-001	-3.83515E-006	0.00000E+000	-1.85000E-001	8.15923E-005	8	..........a	-327.66
	10	0.0022	-2.04853E-001	-4.25517E-006	0.00000E+000	-2.05000E-001	8.15923E-005	8	..........a	-327.66
	12	0.0026	-2.24953E-001	-4.71519E-006	0.00000E+000	-2.25000E-001	8.15923E-005	8	..........a	-327.66
	14	0.003	-2.44853E-001	-5.09520E-006	0.00000E+000	-2.45000E-001	8.15923E-005	8	..........a	-327.66
	16	0.0034	-2.65053E-001	-5.35521E-006	0.00000E+000	-2.65000E-001	-3.18408E-004	8	..........a	-327.66
	18	0.0038	-2.84853E-001	-5.66522E-006	0.00000E+000	-2.85000E-001	8.15923E-005	8	..........a	-327.66
	20	0.0042	-3.04853E-001	-5.95524E-006	0.00000E+000	-3.05000E-001	8.15923E-005	8	..........a	-327.66
	22	0.0046	-3.25053E-001	-6.20525E-006	0.00000E+000	-3.25000E-001	-6.18408E-004	8	..........a	-327.66
	24	0.005	-3.44803E-001	-6.45526E-006	0.00000E+000	-3.45000E-001	8.15923E-005	8	..........a	-327.66
	26	0.0054	-3.65053E-001	-6.66526E-006	0.00000E+000	-3.65000E-001	8.15923E-005	8	..........a	-327.66
	28	0.0058	-3.84953E-001	-6.92527E-006	0.00000E+000	-3.85000E-001	8.15923E-005	8	..........a	-327.66
	30	0.0062	-4.04953E-001	-7.16528E-006	0.00000E+000	-4.05000E-001	8.15923E-005	8	..........a	-327.66
	32	0.0066	-4.24753E-001	-7.41529E-006	0.00000E+000	-4.25000E-001	8.15923E-005	8	..........a	-327.66
	34	0.007	-4.45003E-001	-7.66530E-006	0.00000E+000	-4.45000E-001	8.15923E-005	8	..........a	-327.66
	36	0.0074	-4.64753E-001	-7.97531E-006	0.00000E+000	-4.65000E-001	8.15923E-005	8	..........a	-327.66
	38	0.0078	-4.84753E-001	-8.16532E-006	0.00000E+000	-4.85000E-001	8.15923E-005	8	..........a	-327.66
	40	0.0082	-5.04853E-001	-8.45533E-006	0.00000E+000	-5.05000E-001	8.15923E-005	8	..........a	-327.66
	42	0.0086	-5.24803E-001	-8.64534E-006	0.00000E+000	-5.25000E-001	8.15923E-005	8	..........a	-327.66
	44	0.009	-5.44953E-001	-8.97535E-006	0.00000E+000	-5.45000E-001	8.15923E-005	8	..........a	-327.66
	46	0.0094	-5.64953E-001	-9.23536E-006	0.00000E+000	-5.65000E-001	8.15923E-005	8	..........a	-327.66
	48	0.0098	-5.84953E-001	-9.46537E-006	0.00000E+000	-5.85000E-001	8.15923E-005	8	..........a	-327.66
	50	0.0102	-5.85053E-001	-7.89531E-006	0.00000E+000	-5.85000E-001	8.15923E-005	8	..........a	-327.66
	52	0.0106	-5.64853E-001	-5.36521E-006	0.00000E+000	-5.65000E-001	8.15923E-005	8	..........a	-327.66
	54	0.011	-5.45153E-001	-3.49514E-006	0.00000E+000	-5.45000E-001	8.15923E-005	8	..........a	-327.66
	56	0.0114	-5.24953E-001	-1.96508E-006	0.00000E+000	-5.25000E-001	8.15923E-005	8	..........a	-327.66
	58	0.0118	-5.04853E-001	-7.05035E-007	0.00000E+000	-5.05000E-001	8.15923E-005	8	..........a	-327.66
	60	0.0122	-4.84853E-001	3.45005E-007	0.00000E+000	-4.85000E-001	8.15923E-005	8	..........a	-327.66
	62	0.0126	-4.65053E-001	1.24504E-006	0.00000E+000	-4.65000E-001	8.15923E-005	8	..........a	-327.66
	64	0.013	-4.45153E-001	2.07507E-006	0.00000E+000	-4.45000E-001	8.15923E-005	8	..........a	-327.66
	66	0.0134	-4.24853E-001	2.76510E-006	0.00000E+000	-4.25000E-001	8.15923E-005	8	..........a	-327.66
	68	0.0138	-4.05053E-001	3.32512E-006	0.00000E+000	-4.05000E-001	-3.18408E-004	8	..........a	-327.66
	70	0.0142	-3.84953E-001	3.87514E-006	0.00000E+000	-3.85000E-001	-3.18408E-004	8	..........a	-327.66
	72	0.0146	-3.64953E-001	4.35516E-006	0.00000E+000	-3.65000E-001	8.15923E-005	8	..........a	-327.66
	74	0.015	-3.44853E-001	4.74517E-006	0.00000E+000	-3.45000E-001	8.15923E-005	8	..........a	-327.66
	76	0.0154	-3.24953E-001	5.13519E-006	0.00000E+000	-3.25000E-001	8.15923E-005	8	..........a	-327.66
	78	0.0158	-3.04953E-001	5.40520E-006	0.00000E+000	-3.05000E-001	8.15923E-005	8	..........a	-327.66
	80	0.0162	-2.84903E-001	5.71521E-006	0.00000E+000	-2.85000E-001	8.15923E-005	8	..........a	-327.66
	82	0.0166	-2.65153E-001	5.98522E-006	0.00000E+000	-2.65000E-001	8.15923E-005	8	..........a	-327.66
	84	0.017	-2.44853E-001	6.24523E-006	0.00000E+000	-2.45000E-001	8.15923E-005	8	..........a	-327.66
	86	0.0174	-2.24653E-001	6.45524E-006	0.00000E+000	-2.25000E-001	-3.18408E-004	8	..........a	-327.66
	88	0.0178	-2.04953E-001	6.71525E-006	0.00000E+000	-2.05000E-001	-3.18408E-004	8	..........a	-327.66
	90	0.0182	-1.85153E-001	6.84525E-006	0.00000E+000	-1.85000E-001	8.15923E-005	8	..........a	-327.66
	92	0.0186	-1.64753E-001	7.06526E-006	0.00000E+000	-1.65000E-001	8.15923E-005	8	..........a	-327.66
	94	0.019	-1.44953E-001	7.21527E-006	0.00000E+000	-1.45000E-001	8.15923E-005	8	..........a	-327.66
	96	0.0194	-1.25003E-001	7.39528E-006	0.00000E+000	-1.25000E-001	8.15923E-005	8	..........a	-327.66
	98	0.0198	-1.04953E-001	7.51528E-006	0.00000E+000	-1.05000E-001	-2.18408E-004	8	..........a	-327.66
	100	0.0202	-8.50029E-002	7.68529E-006	0.00000E+000	-8.50000E-002	-3.18408E-004	8	..........a	-327.66
	102	0.0206	-6.51529E-002	7.79529E-006	0.00000E+000	-6.50000E-002	8.15923E-005	8	..........a	-327.66
	104	0.021	-4.50529E-002	7.96530E-006	0.00000E+000	-4.50000E-002	8.15923E-005	8	..........a	-327.66
	106	0.0214	-2.49529E-002	8.08530E-006	0.00000E+000	-2.50000E-002	8.15923E-005	8	..........a	-327.66
	108	0.0218	-5.15289E-003	8.24531E-006	0.00000E+000	-5.00000E-003	8.15923E-005	8	..........a	-327.66
	110	0.0222	1.51471E-002	8.42531E-006	0.00000E+000	1.50000E-002	8.15923E-005	8	..........a	-327.66
	112	0.0226	3.50471E-002	8.60532E-006	0.00000E+000	3.50000E-002	8.15923E-005	8	..........a	-327.66
	114	0.023	5.49471E-002	8.81533E-006	0.00000E+000	5.50000E-002	8.15923E-005	8	..........a	-327.66
	116	0.0234	7.49971E-002	9.01534E-006	0.00000E+000	7.50000E-002	8.15923E-005	8	..........a	-327.66
	118	0.0238	9.49471E-002	9.25535E-006	0.00000E+000	9.50000E-002	8.15923E-005	8	..........a	-327.66
	120	0.0242	1.15047E-001	9.49536E-006	0.00000E+000	1.15000E-001	-2.18408E-004	8	..........a	-327.66
	122	0.0246	1.35047E-001	9.78537E-006	0.00000E+000	1.35000E-001	8.15923E-005	8	..........a	-327.66
	124	0.025	1.55147E-001	1.01154E-005	0.00000E+000	1.55000E-001	8.15923E-005	8	..........a	-327.66
	126	0.0254	1.74947E-001	1.04954E-005	0.00000E+000	1.75000E-001	8.15923E-005	8	..........a	-327.66
	128	0.0258	1.95047E-001	1.08254E-005	0.00000E+000	1.95000E-001	8.15923E-005	8	..........a	-327.66
	130	0.0262	2.14847E-001	1.11854E-005	0.00000E+000	2.15000E-001	8.15923E-005	8	..........a	-327.66
	132	0.0266	2.35047E-001	1.15954E-005	0.00000E+000	2.35000E-001	8.15923E-005	8	..........a	-327.66
	134	0.027	2.55047E-001	1.20555E-005	0.00000E+000	2.55000E-001	8.15923E-005	8	..........a	-327.66
	136	0.0274	2.75047E-001	1.24355E-005	0.00000E+000	2.75000E-001	-3.18408E-004	8	..........a	-327.66
	138	0.0278	2.94997E-001	1.29055E-005	0.00000E+000	2.95000E-001	-2.18408E-004	8	..........a	-327.66
	140	0.0282	3.14847E-001	1.33455E-005	0.00000E+000	3.15000E-001	8.15923E-005	8	..........a	-327.66
	142	0.0286	3.34847E-001	1.38055E-005	0.00000E+000	3.35000E-001	8.15923E-005	8	..........a	-327.66
	144	0.029	3.54947E-001	1.42155E-005	0.00000E+000	3.55000E-001	8.15923E-005	8	..........a	-327.66
	146	0.0294	3.75247E-001	1.47456E-005	0.00000E+000	3.75000E-001	8.15923E-005	8	..........a	-327.66
	148	0.0298	3.94947E-001	1.52356E-005	0.00000E+000	3.95000E-001	8.15923E-005	8	..........a	-327.66
	150	0.0302	4.14947E-001	1.57656E-005	0.00000E+000	4.15000E-001	8.15923E-005	8	..........a	-327.66
	152	0.0306	4.34947E-001	1.62156E-005	0.00000E+000	4.35000E-001	-2.18408E-004	8	..........a	-327.66
	154	0.031	4.54947E-001	1.68156E-005	0.00000E+000	4.55000E-001	8.15923E-005	8	..........a	-327.66
	156	0.0314	4.75047E-001	1.74357E-005	0.00000E+000	4.75000E-001	-3.18408E-004	8	..........a	-327.66
	158	0.0318	4.94947E-001	1.78757E-005	0.00000E+000	4.95000E-001	-3.18408E-004	8	..........a	-327.66
	160	0.0322	5.14997E-001	1.82257E-005	0.00000E+000	5.15000E-001	8.15923E-005	8	..........a	-327.66
	162	0.0326	5.34947E-001	1.83757E-005	0.00000E+000	5.35000E-001	8.15923E-005	8	..........a	-327.66
	164	0.033	5.54947E-001	1.84657E-005	0.00000E+000	5.55000E-001	8.15923E-005	8	..........a	-327.66
	166	0.0334	5.74897E-001	1.86357E-005	0.00000E+000	5.75000E-001	8.15923E-005	8	..........a	-327.66
	168	0.0338	5.94847E-001	1.88057E-005	0.00000E+000	5.95000E-001	8.15923E-005	8	..........a	-327.66
	170	0.0342	6.14747E-001	1.89757E-005	0.00000E+000	6.15000E-001	8.15923E-005	8	..........a	-327.66
	172	0.0346	6.34947E-001	1.92357E-005	0.00000E+000	6.35000E-001	8.15923E-005	8	..........a	-327.66
	174	0.035	6.54847E-001	1.94357E-005	0.00000E+000	6.55000E-001	8.15923E-005	8	..........a	-327.66
	176	0.0354	6.74847E-001	1.96457E-005	0.00000E+000	6.75000E-001	8.15923E-005	8	..........a	-327.66
	178	0.0358	6.94847E-001	1.98358E-005	0.00000E+000	6.95000E-001	-3.18408E-004	8	..........a	-327.66
	180	0.0362	7.14847E-001	2.00258E-005	0.00000E+000	7.15000E-001	8.15923E-005	8	..........a	-327.66
	182	0.0366	7.34847E-001	2.01958E-005	0.00000E+000	7.35000E-001	8.15923E-005	8	..........a	-327.66
	184	0.037	7.54947E-001	2.03258E-005	0.00000E+000	7.55000E-001	8.15923E-005	8	..........a	-327.66
	186	0.0374	7.74847E-001	2.04258E-005	0.00000E+000	7.75000E-001	8.15923E-005	8	..........a	-327.66
	188	0.0378	7.94847E-001	2.05558E-005	0.00000E+000	7.95000E-001	8.15923E-005	8	..........a	-327.66
CURVE2	TABLE
	Pt	T	Vf	Im	Vu	Sig	Ach	IERange	Over	Temp
	#	s	V vs. Ref.	A	V	V	V	#	bits	deg C
	189	0.038	7.89947E-001	1.88557E-005	0.00000E+000	7.90000E-001	8.15923E-005	8	..........a	-327.66
	192	0.0386	7.60047E-001	1.38755E-005	0.00000E+000	7.60000E-001	8.15923E-005	8	..........a	-327.66
	195	0.0392	7.30147E-001	1.02254E-005	0.00000E+000	7.30000E-001	8.15923E-005	8	..........a	-327.66
	198	0.0398	6.99947E-001	7.28527E-006	0.00000E+000	7.00000E-001	8.15923E-005	8	..........a	-327.66
	201	0.0404	6.69847E-001	4.88518E-006	0.00000E+000	6.70000E-001	8.15923E-005	8	..........a	-327.66
	204	0.041	6.39747E-001	2.81510E-006	0.00000E+000	6.40000E-001	8.15923E-005	8	..........a	-327.66
	207	0.0416	6.09847E-001	1.06503E-006	0.00000E+000	6.10000E-001	8.15923E-005	8	..........a	-327.66
	210	0.0422	5.79947E-001	-4.75026E-007	0.00000E+000	5.80000E-001	8.15923E-005	8	..........a	-327.66
	213	0.0428	5.50047E-001	-1.83508E-006	0.00000E+000	5.50000E-001	8.15923E-005	8	..........a	-327.66
	216	0.0434	5.20147E-001	-3.04512E-006	0.00000E+000	5.20000E-001	8.15923E-005	8	..........a	-327.66
	219	0.044	4.89947E-001	-4.14517E-006	0.00000E+000	4.90000E-001	8.15923E-005	8	..........a	-327.66
	222	0.0446	4.60147E-001	-5.15521E-006	0.00000E+000	4.60000E-001	8.15923E-005	8	..........a	-327.66
	225	0.0452	4.30047E-001	-6.12524E-006	0.00000E+000	4.30000E-001	8.15923E-005	8	..........a	-327.66
	228	0.0458	3.99847E-001	-7.02528E-006	0.00000E+000	4.00000E-001	8.15923E-005	8	..........a	-327.66
	231	0.0464	3.69947E-001	-7.92531E-006	0.00000E+000	3.70000E-001	8.15923E-005	8	..........a	-327.66
	234	0.047	3.40147E-001	-8.75534E-006	0.00000E+000	3.40000E-001	8.15923E-005	8	..........a	-327.66
	237	0.0476	3.10147E-001	-9.63538E-006	0.00000E+000	3.10000E-001	8.15923E-005	8	..........a	-327.66
	240	0.0482	2.79847E-001	-1.05754E-005	0.00000E+000	2.80000E-001	8.15923E-005	8	..........a	-327.66
	243	0.0488	2.50047E-001	-1.15254E-005	0.00000E+000	2.50000E-001	-2.18408E-004	8	..........a	-327.66
	246	0.0494	2.19947E-001	-1.24755E-005	0.00000E+000	2.20000E-001	8.15923E-005	8	..........a	-327.66
	249	0.05	1.90047E-001	-1.34155E-005	0.00000E+000	1.90000E-001	-1.18408E-004	8	..........a	-327.66
	252	0.0506	1.59847E-001	-1.40055E-005	0.00000E+000	1.60000E-001	-2.18408E-004	8	..........a	-327.66
	255	0.0512	1.30047E-001	-1.44756E-005	0.00000E+000	1.30000E-001	8.15923E-005	8	..........a	-327.66
	258	0.0518	1.00147E-001	-1.48756E-005	0.00000E+000	1.00000E-001	8.15923E-005	8	..........a	-327.66
[...]
	2714	0.543	7.39947E-001	9.92537E-006	0.00000E+000	7.40000E-001	8.15923E-005	8	..........a	-327.66
	2715	0.5432	7.29947E-001	8.90533E-006	0.00000E+000	7.30000E-001	8.15923E-005	8	..........a	-327.66
	2716	0.5434	7.19947E-001	7.87529E-006	0.00000E+000	7.20000E-001	8.15923E-005	8	..........a	-327.66
	2717	0.5436	7.09947E-001	6.96526E-006	0.00000E+000	7.10000E-001	-3.18408E-004	8	..........a	-327.66
	2718	0.5438	7.00047E-001	6.04522E-006	0.00000E+000	7.00000E-001	8.15923E-005	8	..........a	-327.66
	2719	0.544	6.89847E-001	5.27519E-006	0.00000E+000	6.90000E-001	-3.18408E-004	8	..........a	-327.66
	2720	0.5442	6.80047E-001	4.50516E-006	0.00000E+000	6.80000E-001	8.15923E-005	8	..........a	-327.66
	2721	0.5444	6.69947E-001	3.74514E-006	0.00000E+000	6.70000E-001	8.15923E-005	8	..........a	-327.66
	2722	0.5446	6.60147E-001	3.06511E-006	0.00000E+000	6.60000E-001	-4.18408E-004	8	..........a	-327.66
	2723	0.5448	6.49847E-001	2.46509E-006	0.00000E+000	6.50000E-001	8.15923E-005	8	..........a	-327.66
	2724	0.545	6.40047E-001	1.82506E-006	0.00000E+000	6.40000E-001	8.15923E-005	8	..........a	-327.66
	2725	0.5452	6.30047E-001	1.23504E-006	0.00000E+000	6.30000E-001	8.15923E-005	8	..........a	-327.66
	2726	0.5454	6.19847E-001	7.25020E-007	0.00000E+000	6.20000E-001	8.15923E-005	8	..........a	-327.66
	2727	0.5456	6.09847E-001	1.94999E-007	0.00000E+000	6.10000E-001	8.15923E-005	8	..........a	-327.66
	2728	0.5458	6.00047E-001	-3.55022E-007	0.00000E+000	6.00000E-001	8.15923E-005	8	..........a	-327.66
	2729	0.546	5.89847E-001	-8.15039E-007	0.00000E+000	5.90000E-001	8.15923E-005	8	..........a	-327.66
	2730	0.5462	5.80047E-001	-1.28506E-006	0.00000E+000	5.80000E-001	8.15923E-005	8	..........a	-327.66
	2731	0.5464	5.69947E-001	-1.71507E-006	0.00000E+000	5.70000E-001	8.15923E-005	8	..........a	-327.66
	2732	0.5466	5.59847E-001	-2.12509E-006	0.00000E+000	5.60000E-001	8.15923E-005	8	..........a	-327.66
	2733	0.5468	5.50047E-001	-2.53511E-006	0.00000E+000	5.50000E-001	-4.18408E-004	8	..........a	-327.66
	2734	0.547	5.40047E-001	-2.93512E-006	0.00000E+000	5.40000E-001	8.15923E-005	8	..........a	-327.66
	2735	0.5472	5.29947E-001	-3.31514E-006	0.00000E+000	5.30000E-001	8.15923E-005	8	..........a	-327.66
	2736	0.5474	5.20047E-001	-3.64515E-006	0.00000E+000	5.20000E-001	8.15923E-005	8	..........a	-327.66
	2737	0.5476	5.09947E-001	-4.03516E-006	0.00000E+000	5.10000E-001	8.15923E-005	8	..........a	-327.66
	2738	0.5478	5.00147E-001	-4.39518E-006	0.00000E+000	5.00000E-001	8.15923E-005	8	..........a	-327.66
	2739	0.548	4.90047E-001	-4.67519E-006	0.00000E+000	4.90000E-001	-3.18408E-004	8	..........a	-327.66
	2740	0.5482	4.80147E-001	-5.00520E-006	0.00000E+000	4.80000E-001	-2.18408E-004	8	..........a	-327.66
	2741	0.5484	4.69947E-001	-5.31521E-006	0.00000E+000	4.70000E-001	8.15923E-005	8	..........a	-327.66
	2742	0.5486	4.60047E-001	-5.63522E-006	0.00000E+000	4.60000E-001	8.15923E-005	8	..........a	-327.66
	2743	0.5488	4.50047E-001	-5.93524E-006	0.00000E+000	4.50000E-001	8.15923E-005	8	..........a	-327.66
	2744	0.549	4.39847E-001	-6.20525E-006	0.00000E+000	4.40000E-001	8.15923E-005	8	..........a	-327.66
	2745	0.5492	4.30047E-001	-6.53526E-006	0.00000E+000	4.30000E-001	8.15923E-005	8	..........a	-327.66
	2746	0.5494	4.20047E-001	-6.83527E-006	0.00000E+000	4.20000E-001	8.15923E-005	8	..........a	-327.66
	2747	0.5496	4.09947E-001	-7.09528E-006	0.00000E+000	4.10000E-001	8.15923E-005	8	..........a	-327.66
	2748	0.5498	4.00047E-001	-7.38529E-006	0.00000E+000	4.00000E-001	8.15923E-005	8	..........a	-327.66
	2749	0.55	3.90047E-001	-7.63530E-006	0.00000E+000	3.90000E-001	8.15923E-005	8	..........a	-327.66
	2750	0.5502	3.80147E-001	-7.95531E-006	0.00000E+000	3.80000E-001	8.15923E-005	8	..........a	-327.66
	2751	0.5504	3.69947E-001	-8.19532E-006	0.00000E+000	3.70000E-001	8.15923E-005	8	..........a	-327.66
	2752	0.5506	3.60047E-001	-8.46533E-006	0.00000E+000	3.60000E-001	8.15923E-005	8	..........a	-327.66
	2753	0.5508	3.49947E-001	-8.76534E-006	0.00000E+000	3.50000E-001	8.15923E-005	8	..........a	-327.66
	2754	0.551	3.39947E-001	-9.01535E-006	0.00000E+000	3.40000E-001	8.15923E-005	8	..........a	-327.66
	2755	0.5512	3.29947E-001	-9.31536E-006	0.00000E+000	3.30000E-001	8.15923E-005	8	..........a	-327.66
	2756	0.5514	3.20047E-001	-9.56537E-006	0.00000E+000	3.20000E-001	-3.18408E-004	8	..........a	-327.66
	2757	0.5516	3.10047E-001	-9.86539E-006	0.00000E+000	3.10000E-001	8.15923E-005	8	..........a	-327.66
	2758	0.5518	3.00247E-001	-1.01354E-005	0.00000E+000	3.00000E-001	8.15923E-005	8	..........a	-327.66
	2759	0.552	2.89947E-001	-1.04354E-005	0.00000E+000	2.90000E-001	-1.18408E-004	8	..........a	-327.66
	2760	0.5522	2.80047E-001	-1.06954E-005	0.00000E+000	2.80000E-001	8.15923E-005	8	..........a	-327.66
	2761	0.5524	2.70047E-001	-1.10054E-005	0.00000E+000	2.70000E-001	8.15923E-005	8	..........a	-327.66
	2762	0.5526	2.60047E-001	-1.13054E-005	0.00000E+000	2.60000E-001	8.15923E-005	8	..........a	-327.66
	2763	0.5528	2.50047E-001	-1.15655E-005	0.00000E+000	2.50000E-001	8.15923E-005	8	..........a	-327.66
	2764	0.553	2.40047E-001	-1.19055E-005	0.00000E+000	2.40000E-001	8.15923E-005	8	..........a	-327.66
	2765	0.5532	2.29947E-001	-1.22555E-005	0.00000E+000	2.30000E-001	8.15923E-005	8	..........a	-327.66
	2766	0.5534	2.20047E-001	-1.25055E-005	0.00000E+000	2.20000E-001	8.15923E-005	8	..........a	-327.66
	2767	0.5536	2.10147E-001	-1.27955E-005	0.00000E+000	2.10000E-001	8.15923E-005	8	..........a	-327.66
	2768	0.5538	2.00247E-001	-1.31155E-005	0.00000E+000	2.00000E-001	8.15923E-005	8	..........a	-327.66
	2769	0.554	1.90047E-001	-1.34155E-005	0.00000E+000	1.90000E-001	8.15923E-005	8	..........a	-327.66
	2770	0.5542	1.80047E-001	-1.36355E-005	0.00000E+000	1.80000E-001	8.15923E-005	8	..........a	-327.66
	2771	0.5544	1.70047E-001	-1.38555E-005	0.00000E+000	1.70000E-001	8.15923E-005	8	..........a	-327.66
	2772	0.5546	1.60247E-001	-1.40055E-005	0.00000E+000	1.60000E-001	8.15923E-005	8	..........a	-327.66
	2773	0.5548	1.49947E-001	-1.41455E-005	0.00000E+000	1.50000E-001	8.15923E-005	8	..........a	-327.66
	2774	0.555	1.40047E-001	-1.43556E-005	0.00000E+000	1.40000E-001	8.15923E-005	8	..........a	-327.66
	2775	0.5552	1.29847E-001	-1.44956E-005	0.00000E+000	1.30000E-001	-3.18408E-004	8	..........a	-327.66
	2776	0.5554	1.19847E-001	-1.45456E-005	0.00000E+000	1.20000E-001	8.15923E-005	8	..........a	-327.66
	2777	0.5556	1.10047E-001	-1.47256E-005	0.00000E+000	1.10000E-001	8.15923E-005	8	..........a	-327.66
	2778	0.5558	9.99471E-002	-1.48556E-005	0.00000E+000	1.00000E-001	8.15923E-005	8	..........a	-327.66
	2779	0.556	9.01471E-002	-1.49556E-005	0.00000E+000	9.00000E-002	-3.18408E-004	8	..........a	-327.66
	2780	0.5562	8.00471E-002	-1.50956E-005	0.00000E+000	8.00000E-002	8.15923E-005	8	..........a	-327.66
	2781	0.5564	6.99471E-002	-1.51856E-005	0.00000E+000	7.00000E-002	8.15923E-005	8	..........a	-327.66
	2782	0.5566	6.00471E-002	-1.53156E-005	0.00000E+000	6.00000E-002	8.15923E-005	8	..........a	-327.66
	2783	0.5568	5.00471E-002	-1.54056E-005	0.00000E+000	5.00000E-002	8.15923E-005	8	..........a	-327.66
	2784	0.557	3.98471E-002	-1.54956E-005	0.00000E+000	4.00000E-002	8.15923E-005	8	..........a	-327.66
	2785	0.5572	3.00471E-002	-1.55756E-005	0.00000E+000	3.00000E-002	8.15923E-005	8	..........a	-327.66
	2786	0.5574	2.01471E-002	-1.56556E-005	0.00000E+000	2.00000E-002	8.15923E-005	8	..........a	-327.66
	2787	0.5576	1.00471E-002	-1.57156E-005	0.00000E+000	1.00000E-002	8.15923E-005	8	..........a	-327.66
	2788	0.5578	4.71142E-005	-1.58056E-005	0.00000E+000	7.45058E-009	8.15923E-005	8	..........a	-327.66
	2789	0.558	-1.00529E-002	-1.58956E-005	0.00000E+000	-1.00000E-002	8.15923E-005	8	..........a	-327.66
	2790	0.5582	-1.99529E-002	-1.59356E-005	0.00000E+000	-2.00000E-002	8.15923E-005	8	..........a	-327.66
	2791	0.5584	-2.99529E-002	-1.59756E-005	0.00000E+000	-3.00000E-002	8.15923E-005	8	..........a	-327.66
	2792	0.5586	-3.98529E-002	-1.60156E-005	0.00000E+000	-4.00000E-002	8.15923E-005	8	..........a	-327.66
	2793	0.5588	-4.99529E-002	-1.60656E-005	0.00000E+000	-5.00000E-002	8.15923E-005	8	..........a	-327.66
	2794	0.559	-5.98529E-002	-1.60956E-005	0.00000E+000	-6.00000E-002	8.15923E-005	8	..........a	-327.66
	2795	0.5592	-6.99529E-002	-1.62056E-005	0.00000E+000	-7.00000E-002	-3.18408E-004	8	..........a	-327.66
	2796	0.5594	-8.01529E-002	-1.62756E-005	0.00000E+000	-8.00000E-002	8.15923E-005	8	..........a	-327.66
	2797	0.5596	-8.99529E-002	-1.63256E-005	0.00000E+000	-9.00000E-002	8.15923E-005	8	..........a	-327.66
	2798	0.5598	-9.99529E-002	-1.63156E-005	0.00000E+000	-1.00000E-001	-3.18408E-004	8	..........a	-327.66