File: example_project/raw_outputs/20240522_G_GM0016_HL03_E02_CV50.DTA
EXPLAIN
TAG	CV
TITLE	LABEL	Cyclic Voltammetry	Test &Identifier
DATE	LABEL	5/22/2024	Date
TIME	LABEL	17:11:16	Time
NOTES	NOTES	1	&Notes...

PSTAT	PSTAT	REF600P-43058	Potentiostat
VINIT	POTEN	0.00000E+000	T	Initial &E (V)
VLIMIT1	POTEN	8.00000E-001	F	Scan Limit &1 (V)
VLIMIT2	POTEN	-6.00000E-001	F	Scan Limit &2 (V)
VFINAL	POTEN	0.00000E+000	T	Final &E (V)
SCANRATE	QUANT	4.99999E+001	&Scan Rate (mV/s)
STEPSIZE	QUANT	1.00000E+001	St&ep Size (mV)
CYCLES	IQUANT	4	C&ycles (#)
IMODE	SELECTOR	0	I/E Range &Mode
IRANGE	QUANT	1.00000E-005	&Max Current (mA)
AREA	QUANT	1.00000E+000	Electrode &Area (cm^2)
ELECTRODETYPE	SELECTOR	0	Electrode Type
STRIPPING	TOGGLE	F	Used for Stripping
POLARITY	TOGGLE	F	Signal Polarity
CONDIT	TWOPARAM	F	1.50000E+001	0.00000E+000	Conditionin&g	Time(s)	E(V)
DELAY	TWOPARAM	T	1.00000E+001	0.00000E+000	Init. De&lay	Time(s)	Stab.(mV/s)
EQDELAY	QUANT	5.00000E+000	Equil. &Time (s)
IRCOMP	SELECTOR	0	IRCom&p
PFCOR	QUANT	5.00000E+001	PF Corr. (ohm)
SAMPLINGMODE	SELECTOR	1	Sampling &Mode
OCVCURVE	TABLE	39
	Pt	T	Vf	Vm	Ach	Over	Temp
	#	s	V vs. Ref.	V	V	bits	deg C
	0	0.258333	-1.72431E-001	-1.72431E-001	2.38792E-004	..........a	-327.66
	1	0.516667	-1.72431E-001	-1.72435E-001	2.41459E-004	..........a	-327.66
	2	0.775	-1.72431E-001	-1.72433E-001	2.37926E-004	..........a	-327.66
	3	1.03333	-1.72432E-001	-1.72432E-001	2.42326E-004	..........a	-327.66
	4	1.29167	-1.72432E-001	-1.72429E-001	2.42459E-004	..........a	-327.66
	5	1.55	-1.72432E-001	-1.72428E-001	2.43192E-004	..........a	-327.66
	6	1.80833	-1.72431E-001	-1.72424E-001	2.29192E-004	..........a	-327.66
	7	2.06667	-1.72430E-001	-1.72426E-001	2.42459E-004	..........a	-327.66
	8	2.325	-1.72428E-001	-1.72423E-001	2.45526E-004	..........a	-327.66
	9	2.58333	-1.72426E-001	-1.72423E-001	2.42259E-004	..........a	-327.66
	10	2.84167	-1.72425E-001	-1.72421E-001	2.44859E-004	..........a	-327.66
	11	3.1	-1.72424E-001	-1.72421E-001	2.33792E-004	..........a	-327.66
	12	3.35833	-1.72423E-001	-1.72420E-001	2.34459E-004	..........a	-327.66
	13	3.61667	-1.72422E-001	-1.72420E-001	2.41326E-004	..........a	-327.66
	14	3.875	-1.72421E-001	-1.72417E-001	2.25192E-004	..........a	-327.66
	15	4.13333	-1.72420E-001	-1.72416E-001	2.26792E-004	..........a	-327.66
	16	4.39167	-1.72419E-001	-1.72413E-001	2.33726E-004	..........a	-327.66
	17	4.65	-1.72417E-001	-1.72411E-001	2.27059E-004	..........a	-327.66
	18	4.90833	-1.72415E-001	-1.72408E-001	2.27592E-004	..........a	-327.66
	19	5.16667	-1.72413E-001	-1.72408E-001	2.21726E-004	..........a	-327.66
	20	5.425	-1.72411E-001	-1.72408E-001	2.24659E-004	..........a	-327.66
	21	5.68333	-1.72410E-001	-1.72409E-001	2.42592E-004	..........a	-327.66
	22	5.94167	-1.72409E-001	-1.72406E-001	2.26459E-004	..........a	-327.66
	23	6.2	-1.72408E-001	-1.72407E-001	2.24726E-004	..........a	-327.66
	24	6.45833	-1.72408E-001	-1.72408E-001	2.30059E-004	..........a	-327.66
	25	6.71667	-1.72407E-001	-1.72405E-001	2.27926E-004	..........a	-327.66
	26	6.975	-1.72407E-001	-1.72405E-001	2.36126E-004	..........a	-327.66
	27	7.23333	-1.72407E-001	-1.72403E-001	2.28126E-004	..........a	-327.66
	28	7.49167	-1.72406E-001	-1.72405E-001	2.29592E-004	..........a	-327.66
	29	7.75	-1.72405E-001	-1.72404E-001	2.19792E-004	..........a	-327.66
	30	8.00833	-1.72405E-001	-1.72405E-001	2.19926E-004	..........a	-327.66
	31	8.26667	-1.72404E-001	-1.72402E-001	2.20326E-004	..........a	-327.66
	32	8.525	-1.72404E-001	-1.72403E-001	2.30992E-004	..........a	-327.66
	33	8.78333	-1.72404E-001	-1.72401E-001	2.20659E-004	..........a	-327.66
	34	9.04167	-1.72403E-001	-1.72403E-001	2.26992E-004	..........a	-327.66
	35	9.3	-1.72403E-001	-1.72403E-001	2.22392E-004	..........a	-327.66
	36	9.5583	-1.72403E-001	-1.72403E-001	2.23059E-004	..........a	-327.66
	37	9.8167	-1.72403E-001	-1.72401E-001	2.32459E-004	..........a	-327.66
	38	10.075	-1.72403E-001	-1.72404E-001	2.34992E-004	..........a	-327.66
EOC	QUANT	-0.1724027	Open Circuit (V)
PSTATMODEL	IQUANT	7	Pstat Model
PSTATSECTION	LABEL	REF600P-43058	Pstat Section
PSTATSERIALNO	LABEL	43058	Pstat Serial Number
CTRLMODE	IQUANT	1	Control Mode
ELECTROMETER	IQUANT	0	RE=0 or CS=1
IESTAB	IQUANT	2	I/E Stability
CASPEED	IQUANT	4	Control Amp Speed
CONVENTION	IQUANT	1	Current Convention
ICHRANGE	IQUANT	2	Ich Range
ICHRANGEMODE	TOGGLE	F	Ich Auto Range
ICHOFFSETENABLE	TOGGLE	F	Ich Offset Enable
ICHOFFSET	QUANT	0	Ich Offset (V)
ICHFILTER	IQUANT	2	Ich Filter
VCHRANGE	IQUANT	2	Vch Range
VCHRANGEMODE	TOGGLE	F	Vch Auto Range
VCHOFFSETENABLE	TOGGLE	F	Vch Offset Enable
VCHOFFSET	QUANT	0	Vch Offset (V)
VCHFILTER	IQUANT	2	Vch Filter
ACHRANGE	IQUANT	2	Ach Range
ACHOFFSETENABLE	TOGGLE	F	Ach Offset Enable
ACHOFFSET	QUANT	0	Ach Offset (V)
ACHFILTER	IQUANT	1	Ach Filter
IERANGELOWERLIMIT	IQUANT	1	I/E Range Lower Limit
IERANGEMODE	TOGGLE	T	I/E AutoRange
IERANGE	IQUANT	4	I/E Range
POSFEEDENABLE	TOGGLE	F	Positive Feedback IR Comp
POSFEEDRESISTANCE	QUANT	0	Positive Feedback Resistance (ohm)
ACHSELECT	IQUANT	4	Ach Select
SENSECABLEID	IQUANT	7	Sense Cable ID
PWRCABLEID	IQUANT	7	Power Cable ID
DCCALDATE	LABEL	3/22/2024	DC Calibration Date
ACCALDATE	LABEL	3/22/2024	AC Calibration Date
THERMOSELECT	IQUANT	1	Thermo Select
FRAMEWORKVERSION	LABEL	7.8.4	Framework Version
INSTRUMENTVERSION	LABEL	4.42	Instrument Version
CURVE1	TABLE
	Pt	T	Vf	Im	Vu	Sig	Ach	IERange	Over	Temp
	#	s	V vs. Ref.	A	V	V	V	#	bits	deg C
	0	0.2	-1.72349E-001	1.17161E-010	0.00000E+000	-1.72400E-001	9.87192E-004	5	..........a	-327.66
	3	0.8	-1.42362E-001	1.97803E-008	0.00000E+000	-1.42400E-001	9.96492E-004	5	..........a	-327.66
	6	1.4	-1.12358E-001	2.90454E-008	0.00000E+000	-1.12400E-001	1.00009E-003	5	..........a	-327.66
	9	2	-8.23100E-002	3.62931E-008	0.00000E+000	-8.24000E-002	9.73992E-004	5	..........a	-327.66
	12	2.6	-5.23958E-002	4.31584E-008	0.00000E+000	-5.24000E-002	9.80492E-004	5	..........a	-327.66
	15	3.2	-2.24216E-002	5.01484E-008	0.00000E+000	-2.24000E-002	9.93192E-004	5	..........a	-327.66
	18	3.8	7.66999E-003	5.74387E-008	0.00000E+000	7.60000E-003	9.83692E-004	5	..........a	-327.66
	21	4.4	3.76540E-002	6.49585E-008	0.00000E+000	3.76000E-002	9.75592E-004	5	..........a	-327.66
	24	5	6.76329E-002	7.26997E-008	0.00000E+000	6.76000E-002	9.83292E-004	5	..........a	-327.66
	27	5.6	9.75538E-002	8.03794E-008	0.00000E+000	9.76000E-002	9.87792E-004	5	..........a	-327.66
	30	6.2	1.27582E-001	8.76556E-008	0.00000E+000	1.27600E-001	1.01579E-003	5	..........a	-327.66
	33	6.8	1.57621E-001	9.45704E-008	0.00000E+000	1.57600E-001	9.92392E-004	5	..........a	-327.66
	36	7.4	1.87609E-001	1.01274E-007	0.00000E+000	1.87600E-001	9.86492E-004	5	..........a	-327.66
	39	8	2.17573E-001	1.07942E-007	0.00000E+000	2.17600E-001	9.93992E-004	5	..........a	-327.66
	42	8.6	2.47551E-001	1.15136E-007	0.00000E+000	2.47600E-001	1.01739E-003	5	..........a	-327.66
	45	9.2	2.77569E-001	1.22105E-007	0.00000E+000	2.77600E-001	9.90892E-004	5	..........a	-327.66
	48	9.8	3.07536E-001	1.29087E-007	0.00000E+000	3.07600E-001	9.86792E-004	5	..........a	-327.66
	51	10.4	3.37525E-001	1.36117E-007	0.00000E+000	3.37600E-001	1.01309E-003	5	..........a	-327.66
	54	11	3.67612E-001	1.43248E-007	0.00000E+000	3.67600E-001	1.00139E-003	5	..........a	-327.66
	57	11.6	3.97596E-001	1.49380E-007	0.00000E+000	3.97600E-001	9.65392E-004	5	..........a	-327.66
	60	12.2	4.27506E-001	1.54648E-007	0.00000E+000	4.27600E-001	9.91192E-004	5	..........a	-327.66
	63	12.8	4.57507E-001	1.60197E-007	0.00000E+000	4.57600E-001	1.00479E-003	5	..........a	-327.66
	66	13.4	4.87536E-001	1.65970E-007	0.00000E+000	4.87600E-001	9.75292E-004	5	..........a	-327.66
	69	14	5.17497E-001	1.72028E-007	0.00000E+000	5.17600E-001	9.81792E-004	5	..........a	-327.66
	72	14.6	5.47485E-001	1.77365E-007	0.00000E+000	5.47600E-001	9.96592E-004	5	..........a	-327.66
	75	15.2	5.77539E-001	1.82712E-007	0.00000E+000	5.77600E-001	1.00179E-003	5	..........a	-327.66
	78	15.8	6.07537E-001	1.87970E-007	0.00000E+000	6.07600E-001	1.00739E-003	5	..........a	-327.66
	81	16.4	6.37468E-001	1.91307E-007	0.00000E+000	6.37600E-001	9.72492E-004	5	..........a	-327.66
	84	17	6.67437E-001	1.96383E-007	0.00000E+000	6.67600E-001	9.84992E-004	5	..........a	-327.66
	87	17.6	6.97445E-001	2.01399E-007	0.00000E+000	6.97600E-001	9.97192E-004	5	..........a	-327.66
	90	18.2	7.27521E-001	2.06757E-007	0.00000E+000	7.27600E-001	9.95192E-004	5	..........a	-327.66
	93	18.8	7.57402E-001	2.12528E-007	0.00000E+000	7.57600E-001	9.86192E-004	5	..........a	-327.66
	96	19.4	7.87419E-001	2.18611E-007	0.00000E+000	7.87600E-001	1.00279E-003	5	..........a	-327.66
	99	20	7.77478E-001	1.79782E-007	0.00000E+000	7.77600E-001	1.00229E-003	5	..........a	-327.66
	102	20.6	7.47481E-001	1.44466E-007	0.00000E+000	7.47600E-001	9.91792E-004	5	..........a	-327.66
	105	21.2	7.17485E-001	1.20777E-007	0.00000E+000	7.17600E-001	9.98492E-004	5	..........a	-327.66
	108	21.8	6.87561E-001	1.03145E-007	0.00000E+000	6.87600E-001	9.80592E-004	5	..........a	-327.66
	111	22.4	6.57481E-001	8.93113E-008	0.00000E+000	6.57600E-001	1.01099E-003	5	..........a	-327.66
	114	23	6.27568E-001	7.79810E-008	0.00000E+000	6.27600E-001	1.00759E-003	5	..........a	-327.66
	117	23.6	5.97576E-001	6.83630E-008	0.00000E+000	5.97600E-001	9.82992E-004	5	..........a	-327.66
	120	24.2	5.67575E-001	5.98975E-008	0.00000E+000	5.67600E-001	1.02109E-003	5	..........a	-327.66
	123	24.8	5.37521E-001	5.23016E-008	0.00000E+000	5.37600E-001	1.01089E-003	5	..........a	-327.66
	126	25.4	5.07540E-001	4.53024E-008	0.00000E+000	5.07600E-001	9.96292E-004	5	..........a	-327.66
	129	26	4.77650E-001	3.87266E-008	0.00000E+000	4.77600E-001	1.01439E-003	5	..........a	-327.66
	132	26.6	4.47643E-001	3.25123E-008	0.00000E+000	4.47600E-001	9.97892E-004	5	..........a	-327.66
	135	27.2	4.17592E-001	2.65630E-008	0.00000E+000	4.17600E-001	9.83092E-004	5	..........a	-327.66
	138	27.8	3.87584E-001	2.07837E-008	0.00000E+000	3.87600E-001	9.97892E-004	5	..........a	-327.66
	141	28.4	3.57686E-001	1.51623E-008	0.00000E+000	3.57600E-001	9.93692E-004	5	..........a	-327.66
	144	29	3.27608E-001	9.63729E-009	0.00000E+000	3.27600E-001	1.01619E-003	5	..........a	-327.66
	147	29.6	2.97572E-001	4.19765E-009	0.00000E+000	2.97600E-001	9.97692E-004	5	..........a	-327.66
	150	30.2	2.67621E-001	-1.24764E-009	0.00000E+000	2.67600E-001	1.00349E-003	5	..........a	-327.66
	153	30.8	2.37677E-001	-6.61486E-009	0.00000E+000	2.37600E-001	9.93392E-004	5	..........a	-327.66
	156	31.4	2.07619E-001	-1.19669E-008	0.00000E+000	2.07600E-001	1.01969E-003	5	..........a	-327.66
	159	32	1.77611E-001	-1.72610E-008	0.00000E+000	1.77600E-001	9.88892E-004	5	..........a	-327.66
	162	32.6	1.47652E-001	-2.24802E-008	0.00000E+000	1.47600E-001	9.87092E-004	5	..........a	-327.66
	165	33.2	1.17779E-001	-2.75551E-008	0.00000E+000	1.17600E-001	9.70992E-004	5	..........a	-327.66
	168	33.8	8.77124E-002	-3.24989E-008	0.00000E+000	8.76000E-002	9.94292E-004	5	..........a	-327.66
	171	34.4	5.76422E-002	-3.73227E-008	0.00000E+000	5.76000E-002	1.01619E-003	5	..........a	-327.66
	174	35	2.76520E-002	-4.21813E-008	0.00000E+000	2.76000E-002	9.98992E-004	5	..........a	-327.66
	177	35.6	-2.26901E-003	-4.66532E-008	0.00000E+000	-2.40000E-003	9.73592E-004	5	..........a	-327.66
	180	36.2	-3.23205E-002	-5.08580E-008	0.00000E+000	-3.24000E-002	1.01709E-003	5	..........a	-327.66
	183	36.8	-6.22205E-002	-5.47557E-008	0.00000E+000	-6.24000E-002	1.00249E-003	5	..........a	-327.66
	186	37.4	-9.23044E-002	-5.86647E-008	0.00000E+000	-9.24000E-002	9.92792E-004	5	..........a	-327.66
	189	38	-1.22298E-001	-6.30339E-008	0.00000E+000	-1.22400E-001	9.97792E-004	5	..........a	-327.66
	192	38.6	-1.52299E-001	-6.71023E-008	0.00000E+000	-1.52400E-001	1.00979E-003	5	..........a	-327.66
	195	39.2	-1.82337E-001	-7.07113E-008	0.00000E+000	-1.82400E-001	1.00739E-003	5	..........a	-327.66
	198	39.8	-2.12303E-001	-7.41474E-008	0.00000E+000	-2.12400E-001	9.89592E-004	5	..........a	-327.66
	201	40.4	-2.42187E-001	-7.75460E-008	0.00000E+000	-2.42400E-001	9.95692E-004	5	..........a	-327.66
	204	41	-2.72242E-001	-8.11813E-008	0.00000E+000	-2.72400E-001	1.00399E-003	5	..........a	-327.66
	207	41.6	-3.02258E-001	-8.52449E-008	0.00000E+000	-3.02400E-001	9.79292E-004	5	..........a	-327.66
	210	42.2	-3.32302E-001	-8.99715E-008	0.00000E+000	-3.32400E-001	9.98992E-004	5	..........a	-327.66
	213	42.8	-3.62164E-001	-9.50253E-008	0.00000E+000	-3.62400E-001	9.85692E-004	5	..........a	-327.66
	216	43.4	-3.92309E-001	-1.00105E-007	0.00000E+000	-3.92400E-001	1.01179E-003	5	..........a	-327.66
	219	44	-4.22195E-001	-1.05986E-007	0.00000E+000	-4.22400E-001	9.97092E-004	5	..........a	-327.66
	222	44.6	-4.52217E-001	-1.12518E-007	0.00000E+000	-4.52400E-001	9.83492E-004	5	..........a	-327.66
	225	45.2	-4.82148E-001	-1.19251E-007	0.00000E+000	-4.82400E-001	9.98792E-004	5	..........a	-327.66
	228	45.8	-5.12232E-001	-1.26447E-007	0.00000E+000	-5.12400E-001	9.93092E-004	5	..........a	-327.66
	231	46.4	-5.42236E-001	-1.33809E-007	0.00000E+000	-5.42400E-001	9.97992E-004	5	..........a	-327.66
	234	47	-5.72214E-001	-1.41327E-007	0.00000E+000	-5.72400E-001	9.93092E-004	5	..........a	-327.66
	237	47.6	-6.02187E-001	-1.48909E-007	0.00000E+000	-6.02400E-001	9.99792E-004	5	..........a	-327.66
CURVE2	TABLE
	Pt	T	Vf	Im	Vu	Sig	Ach	IERange	Over	Temp
	#	s	V vs. Ref.	A	V	V	V	#	bits	deg C
	238	47.8	-5.89829E-001	-1.25545E-007	0.00000E+000	-5.90000E-001	1.01079E-003	5	..........a	-327.66
	241	48.4	-5.59834E-001	-9.15547E-008	0.00000E+000	-5.60000E-001	9.97692E-004	5	..........a	-327.66
	244	49	-5.29833E-001	-6.97884E-008	0.00000E+000	-5.30000E-001	9.93392E-004	5	..........a	-327.66
	247	49.6	-4.99825E-001	-5.35262E-008	0.00000E+000	-5.00000E-001	9.88992E-004	5	..........a	-327.66
	250	50.2	-4.69847E-001	-4.05016E-008	0.00000E+000	-4.70000E-001	1.00339E-003	5	..........a	-327.66
	253	50.8	-4.39867E-001	-2.96827E-008	0.00000E+000	-4.40000E-001	9.97992E-004	5	..........a	-327.66
	256	51.4	-4.09876E-001	-2.04610E-008	0.00000E+000	-4.10000E-001	1.00109E-003	5	..........a	-327.66
	259	52	-3.79859E-001	-1.23473E-008	0.00000E+000	-3.80000E-001	9.95692E-004	5	..........a	-327.66
	262	52.6	-3.49881E-001	-5.07761E-009	0.00000E+000	-3.50000E-001	1.00459E-003	5	..........a	-327.66
	265	53.2	-3.19899E-001	1.56735E-009	0.00000E+000	-3.20000E-001	1.00539E-003	5	..........a	-327.66
	268	53.8	-2.89960E-001	7.71991E-009	0.00000E+000	-2.90000E-001	1.01019E-003	5	..........a	-327.66
	271	54.4	-2.59837E-001	1.36023E-008	0.00000E+000	-2.60000E-001	9.72692E-004	5	..........a	-327.66
	274	55	-2.29962E-001	1.92478E-008	0.00000E+000	-2.30000E-001	1.02039E-003	5	..........a	-327.66
	277	55.6	-1.99989E-001	2.48294E-008	0.00000E+000	-2.00000E-001	1.00809E-003	5	..........a	-327.66
	280	56.2	-1.69913E-001	3.03628E-008	0.00000E+000	-1.70000E-001	1.02409E-003	5	..........a	-327.66
	283	56.8	-1.39925E-001	3.60306E-008	0.00000E+000	-1.40000E-001	9.80492E-004	5	..........a	-327.66
	286	57.4	-1.09985E-001	4.19632E-008	0.00000E+000	-1.10000E-001	1.00449E-003	5	..........a	-327.66
	289	58	-8.00233E-002	4.83969E-008	0.00000E+000	-8.00000E-002	9.99992E-004	5	..........a	-327.66
	292	58.6	-4.99697E-002	5.48728E-008	0.00000E+000	-5.00000E-002	1.01309E-003	5	..........a	-327.66
	295	59.2	-1.99618E-002	6.14365E-008	0.00000E+000	-2.00000E-002	9.95592E-004	5	..........a	-327.66
	298	59.8	1.00635E-002	6.84032E-008	0.00000E+000	1.00000E-002	1.01219E-003	5	..........a	-327.66
	301	60.4	4.00429E-002	7.55150E-008	0.00000E+000	4.00000E-002	1.00029E-003	5	..........a	-327.66
	304	61	6.99643E-002	8.27188E-008	0.00000E+000	7.00000E-002	1.02569E-003	5	..........a	-327.66
	307	61.6	1.00030E-001	9.00994E-008	0.00000E+000	1.00000E-001	1.00999E-003	5	..........a	-327.66
	310	62.2	1.29999E-001	9.72254E-008	0.00000E+000	1.30000E-001	1.02019E-003	5	..........a	-327.66
	313	62.8	1.59975E-001	1.04130E-007	0.00000E+000	1.60000E-001	1.02189E-003	5	..........a	-327.66
	316	63.4	1.90051E-001	1.10179E-007	0.00000E+000	1.90000E-001	1.00869E-003	5	..........a	-327.66
	319	64	2.19932E-001	1.15210E-007	0.00000E+000	2.20000E-001	9.77292E-004	5	..........a	-327.66
	322	64.6	2.49983E-001	1.19051E-007	0.00000E+000	2.50000E-001	1.00079E-003	5	..........a	-327.66
	325	65.2	2.79920E-001	1.23784E-007	0.00000E+000	2.80000E-001	9.98592E-004	5	..........a	-327.66
	328	65.8	3.09988E-001	1.28257E-007	0.00000E+000	3.10000E-001	1.00079E-003	5	..........a	-327.66
	331	66.4	3.40006E-001	1.32977E-007	0.00000E+000	3.40000E-001	9.88992E-004	5	..........a	-327.66
	334	67	3.69976E-001	1.37448E-007	0.00000E+000	3.70000E-001	1.00839E-003	5	..........a	-327.66
	337	67.6	3.99915E-001	1.41618E-007	0.00000E+000	4.00000E-001	1.00759E-003	5	..........a	-327.66
	340	68.2	4.29944E-001	1.45636E-007	0.00000E+000	4.30000E-001	1.01999E-003	5	..........a	-327.66
	343	68.8	4.59935E-001	1.49829E-007	0.00000E+000	4.60000E-001	9.97792E-004	5	..........a	-327.66
	346	69.4	4.89907E-001	1.53837E-007	0.00000E+000	4.90000E-001	1.00609E-003	5	..........a	-327.66
	349	70	5.19915E-001	1.57499E-007	0.00000E+000	5.20000E-001	1.01119E-003	5	..........a	-327.66
	352	70.6	5.49973E-001	1.61816E-007	0.00000E+000	5.50000E-001	1.00799E-003	5	..........a	-327.66
	355	71.2	5.79935E-001	1.66225E-007	0.00000E+000	5.80000E-001	1.02149E-003	5	..........a	-327.66
	358	71.8	6.09880E-001	1.71631E-007	0.00000E+000	6.10000E-001	1.02199E-003	5	..........a	-327.66
	361	72.4	6.39852E-001	1.76136E-007	0.00000E+000	6.40000E-001	1.00899E-003	5	..........a	-327.66
[...]
	954	191	6.30019E-001	7.13399E-008	0.00000E+000	6.30000E-001	1.02479E-003	5	..........a	-327.66
	957	191.6	5.99983E-001	6.26305E-008	0.00000E+000	6.00000E-001	9.89292E-004	5	..........a	-327.66
	960	192.2	5.69960E-001	5.48938E-008	0.00000E+000	5.70000E-001	1.00449E-003	5	..........a	-327.66
	963	192.8	5.40000E-001	4.78447E-008	0.00000E+000	5.40000E-001	1.00779E-003	5	..........a	-327.66
	966	193.4	5.09978E-001	4.12902E-008	0.00000E+000	5.10000E-001	1.01299E-003	5	..........a	-327.66
	969	194	4.79936E-001	3.51182E-008	0.00000E+000	4.80000E-001	1.01279E-003	5	..........a	-327.66
	972	194.6	4.50040E-001	2.92176E-008	0.00000E+000	4.50000E-001	1.00539E-003	5	..........a	-327.66
	975	195.2	4.20015E-001	2.35289E-008	0.00000E+000	4.20000E-001	1.01199E-003	5	..........a	-327.66
	978	195.8	3.90023E-001	1.80182E-008	0.00000E+000	3.90000E-001	1.01769E-003	5	..........a	-327.66
	981	196.4	3.59982E-001	1.26365E-008	0.00000E+000	3.60000E-001	1.00889E-003	5	..........a	-327.66
	984	197	3.29998E-001	7.36152E-009	0.00000E+000	3.30000E-001	1.00719E-003	5	..........a	-327.66
	987	197.6	3.00095E-001	2.16005E-009	0.00000E+000	3.00000E-001	1.01229E-003	5	..........a	-327.66
	990	198.2	2.70108E-001	-3.01439E-009	0.00000E+000	2.70000E-001	1.01579E-003	5	..........a	-327.66
	993	198.8	2.40062E-001	-8.14559E-009	0.00000E+000	2.40000E-001	1.00179E-003	5	..........a	-327.66
	996	199.4	2.10031E-001	-1.33105E-008	0.00000E+000	2.10000E-001	1.01289E-003	5	..........a	-327.66
	999	200	1.80126E-001	-1.85318E-008	0.00000E+000	1.80000E-001	9.96092E-004	5	..........a	-327.66
	1002	200.6	1.50093E-001	-2.38546E-008	0.00000E+000	1.50000E-001	1.02039E-003	5	..........a	-327.66
	1005	201.2	1.20071E-001	-2.91815E-008	0.00000E+000	1.20000E-001	1.00639E-003	5	..........a	-327.66
	1008	201.8	9.01294E-002	-3.45255E-008	0.00000E+000	9.00000E-002	1.00919E-003	5	..........a	-327.66
	1011	202.4	6.01469E-002	-3.99073E-008	0.00000E+000	6.00000E-002	1.00839E-003	5	..........a	-327.66
	1014	203	3.01142E-002	-4.52659E-008	0.00000E+000	3.00000E-002	1.01879E-003	5	..........a	-327.66
	1017	203.6	7.52417E-005	-5.11293E-008	0.00000E+000	7.45058E-009	1.02719E-003	5	..........a	-327.66
	1020	204.2	-2.99161E-002	-5.73771E-008	0.00000E+000	-3.00000E-002	1.00469E-003	5	..........a	-327.66
	1023	204.8	-5.98248E-002	-6.23918E-008	0.00000E+000	-6.00000E-002	9.99092E-004	5	..........a	-327.66
	1026	205.4	-8.98706E-002	-6.65138E-008	0.00000E+000	-9.00000E-002	1.01459E-003	5	..........a	-327.66
	1029	206	-1.19879E-001	-7.03840E-008	0.00000E+000	-1.20000E-001	9.91592E-004	5	..........a	-327.66
	1032	206.6	-1.49923E-001	-7.41316E-008	0.00000E+000	-1.50000E-001	1.02609E-003	5	..........a	-327.66
	1035	207.2	-1.79833E-001	-7.77220E-008	0.00000E+000	-1.80000E-001	9.93192E-004	5	..........a	-327.66
	1038	207.8	-2.09860E-001	-8.14647E-008	0.00000E+000	-2.10000E-001	1.01189E-003	5	..........a	-327.66
	1041	208.4	-2.39814E-001	-8.50096E-008	0.00000E+000	-2.40000E-001	1.00519E-003	5	..........a	-327.66
	1044	209	-2.69834E-001	-8.88900E-008	0.00000E+000	-2.70000E-001	1.00579E-003	5	..........a	-327.66
	1047	209.6	-2.99812E-001	-9.25545E-008	0.00000E+000	-3.00000E-001	1.00099E-003	5	..........a	-327.66
	1050	210.2	-3.29847E-001	-9.63093E-008	0.00000E+000	-3.30000E-001	1.01779E-003	5	..........a	-327.66
	1053	210.8	-3.59882E-001	-1.00499E-007	0.00000E+000	-3.60000E-001	1.00029E-003	5	..........a	-327.66
	1056	211.4	-3.89860E-001	-1.05190E-007	0.00000E+000	-3.90000E-001	1.01609E-003	5	..........a	-327.66
	1059	212	-4.19719E-001	-1.10414E-007	0.00000E+000	-4.20000E-001	9.90792E-004	5	..........a	-327.66
	1062	212.6	-4.49811E-001	-1.16217E-007	0.00000E+000	-4.50000E-001	9.94992E-004	5	..........a	-327.66
	1065	213.2	-4.79798E-001	-1.22481E-007	0.00000E+000	-4.80000E-001	1.00199E-003	5	..........a	-327.66
	1068	213.8	-5.09805E-001	-1.29245E-007	0.00000E+000	-5.10000E-001	1.00309E-003	5	..........a	-327.66
	1071	214.4	-5.39719E-001	-1.36412E-007	0.00000E+000	-5.40000E-001	1.00009E-003	5	..........a	-327.66
	1074	215	-5.69815E-001	-1.43880E-007	0.00000E+000	-5.70000E-001	9.98092E-004	5	..........a	-327.66
	1077	215.6	-5.99875E-001	-1.51617E-007	0.00000E+000	-6.00000E-001	1.00039E-003	5	..........a	-327.66
CURVE5	TABLE
	Pt	T	Vf	Im	Vu	Sig	Ach	IERange	Over	Temp
	#	s	V vs. Ref.	A	V	V	V	#	bits	deg C
	1078	215.8	-5.89810E-001	-1.31084E-007	0.00000E+000	-5.90000E-001	1.01339E-003	5	..........a	-327.66
	1079	216	-5.79769E-001	-1.16795E-007	0.00000E+000	-5.80000E-001	1.00069E-003	5	..........a	-327.66
	1080	216.2	-5.69821E-001	-1.05444E-007	0.00000E+000	-5.70000E-001	1.02249E-003	5	..........a	-327.66
	1081	216.4	-5.59828E-001	-9.57508E-008	0.00000E+000	-5.60000E-001	9.94792E-004	5	..........a	-327.66
	1082	216.6	-5.49841E-001	-8.74024E-008	0.00000E+000	-5.50000E-001	9.91692E-004	5	..........a	-327.66
	1083	216.8	-5.39744E-001	-7.99963E-008	0.00000E+000	-5.40000E-001	1.01029E-003	5	..........a	-327.66
	1084	217	-5.29837E-001	-7.34781E-008	0.00000E+000	-5.30000E-001	1.01799E-003	5	..........a	-327.66
	1085	217.2	-5.19839E-001	-6.75282E-008	0.00000E+000	-5.20000E-001	9.96592E-004	5	..........a	-327.66
	1086	217.4	-5.09840E-001	-6.20969E-008	0.00000E+000	-5.10000E-001	1.00029E-003	5	..........a	-327.66
	1087	217.6	-4.99808E-001	-5.70670E-008	0.00000E+000	-5.00000E-001	9.88792E-004	5	..........a	-327.66
	1088	217.8	-4.89846E-001	-5.23788E-008	0.00000E+000	-4.90000E-001	1.00219E-003	5	..........a	-327.66
	1089	218	-4.79857E-001	-4.79895E-008	0.00000E+000	-4.80000E-001	1.00209E-003	5	..........a	-327.66
	1090	218.2	-4.69832E-001	-4.38805E-008	0.00000E+000	-4.70000E-001	9.91992E-004	5	..........a	-327.66
	1091	218.4	-4.59795E-001	-3.99581E-008	0.00000E+000	-4.60000E-001	9.88092E-004	5	..........a	-327.66
	1092	218.6	-4.49840E-001	-3.60649E-008	0.00000E+000	-4.50000E-001	1.01219E-003	5	..........a	-327.66
	1093	218.8	-4.39887E-001	-3.26025E-008	0.00000E+000	-4.40000E-001	1.00799E-003	5	..........a	-327.66
	1094	219	-4.29847E-001	-2.93613E-008	0.00000E+000	-4.30000E-001	1.01309E-003	5	..........a	-327.66
	1095	219.2	-4.19773E-001	-2.62822E-008	0.00000E+000	-4.20000E-001	1.00169E-003	5	..........a	-327.66
	1096	219.4	-4.09873E-001	-2.33246E-008	0.00000E+000	-4.10000E-001	1.01159E-003	5	..........a	-327.66
	1097	219.6	-3.99856E-001	-2.05087E-008	0.00000E+000	-4.00000E-001	1.00079E-003	5	..........a	-327.66
	1098	219.8	-3.89940E-001	-1.77670E-008	0.00000E+000	-3.90000E-001	1.02519E-003	5	..........a	-327.66
	1099	220	-3.79835E-001	-1.51417E-008	0.00000E+000	-3.80000E-001	1.00949E-003	5	..........a	-327.66
	1100	220.2	-3.69867E-001	-1.26009E-008	0.00000E+000	-3.70000E-001	1.01499E-003	5	..........a	-327.66
	1101	220.4	-3.59881E-001	-1.01118E-008	0.00000E+000	-3.60000E-001	1.01589E-003	5	..........a	-327.66
	1102	220.6	-3.49877E-001	-7.70280E-009	0.00000E+000	-3.50000E-001	9.97592E-004	5	..........a	-327.66
	1103	220.8	-3.39829E-001	-5.40031E-009	0.00000E+000	-3.40000E-001	9.98492E-004	5	..........a	-327.66
	1104	221	-3.29873E-001	-3.10937E-009	0.00000E+000	-3.30000E-001	1.00819E-003	5	..........a	-327.66
	1105	221.2	-3.19886E-001	-9.19358E-010	0.00000E+000	-3.20000E-001	1.00519E-003	5	..........a	-327.66
	1106	221.4	-3.09914E-001	1.26011E-009	0.00000E+000	-3.10000E-001	1.00799E-003	5	..........a	-327.66
	1107	221.6	-2.99870E-001	3.36283E-009	0.00000E+000	-3.00000E-001	9.95992E-004	5	..........a	-327.66
	1108	221.8	-2.89918E-001	5.43215E-009	0.00000E+000	-2.90000E-001	1.01139E-003	5	..........a	-327.66
	1109	222	-2.79953E-001	7.57530E-009	0.00000E+000	-2.80000E-001	1.01599E-003	5	..........a	-327.66
	1110	222.2	-2.69877E-001	9.60187E-009	0.00000E+000	-2.70000E-001	1.02479E-003	5	..........a	-327.66
	1111	222.4	-2.59814E-001	1.16247E-008	0.00000E+000	-2.60000E-001	9.94892E-004	5	..........a	-327.66
	1112	222.6	-2.49921E-001	1.35846E-008	0.00000E+000	-2.50000E-001	1.02359E-003	5	..........a	-327.66
	1113	222.8	-2.39922E-001	1.55390E-008	0.00000E+000	-2.40000E-001	1.00799E-003	5	..........a	-327.66
	1114	223	-2.29951E-001	1.74865E-008	0.00000E+000	-2.30000E-001	1.00279E-003	5	..........a	-327.66
	1115	223.2	-2.19885E-001	1.94313E-008	0.00000E+000	-2.20000E-001	9.89692E-004	5	..........a	-327.66
	1116	223.4	-2.09918E-001	2.13780E-008	0.00000E+000	-2.10000E-001	1.00959E-003	5	..........a	-327.66
	1117	223.6	-2.00003E-001	2.33181E-008	0.00000E+000	-2.00000E-001	1.00979E-003	5	..........a	-327.66
	1118	223.8	-1.89981E-001	2.52528E-008	0.00000E+000	-1.90000E-001	1.00399E-003	5	..........a	-327.66
	1119	224	-1.79918E-001	2.71605E-008	0.00000E+000	-1.80000E-001	1.00429E-003	5	..........a	-327.66
	1120	224.2	-1.69919E-001	2.91045E-008	0.00000E+000	-1.70000E-001	1.02139E-003	5	..........a	-327.66