File: example_project/raw_outputs/20240509_C_GM0016_HL03_E01_CV50.DTA
EXPLAIN
TAG	CV
TITLE	LABEL	Cyclic Voltammetry	Test &Identifier
DATE	LABEL	5/9/2024	Date
TIME	LABEL	12:30:22	Time
NOTES	NOTES	1	&Notes...

PSTAT	PSTAT	REF600P-43058	Potentiostat
VINIT	POTEN	0.00000E+000	T	Initial &E (V)
VLIMIT1	POTEN	8.00000E-001	F	Scan Limit &1 (V)
VLIMIT2	POTEN	-6.00000E-001	F	Scan Limit &2 (V)
VFINAL	POTEN	0.00000E+000	T	Final &E (V)
SCANRATE	QUANT	4.99999E+001	&Scan Rate (mV/s)
STEPSIZE	QUANT	1.00000E+001	St&ep Size (mV)
CYCLES	IQUANT	4	C&ycles (#)
IMODE	SELECTOR	0	I/E Range &Mode
IRANGE	QUANT	1.00000E-005	&Max Current (mA)
AREA	QUANT	1.00000E+000	Electrode &Area (cm^2)
ELECTRODETYPE	SELECTOR	0	Electrode Type
STRIPPING	TOGGLE	F	Used for Stripping
POLARITY	TOGGLE	F	Signal Polarity
CONDIT	TWOPARAM	F	1.50000E+001	0.00000E+000	Conditionin&g	Time(s)	E(V)
DELAY	TWOPARAM	T	1.00000E+001	0.00000E+000	Init. De&lay	Time(s)	Stab.(mV/s)
EQDELAY	QUANT	1.00000E+001	Equil. &Time (s)
IRCOMP	SELECTOR	0	IRCom&p
PFCOR	QUANT	5.00000E+001	PF Corr. (ohm)
SAMPLINGMODE	SELECTOR	1	Sampling &Mode
OCVCURVE	TABLE	39
	Pt	T	Vf	Vm	Ach	Over	Temp
	#	s	V vs. Ref.	V	V	bits	deg C
	0	0.258333	1.71403E-001	1.71403E-001	2.51992E-004	..........a	-327.66
	1	0.516667	1.71352E-001	1.68750E-001	2.44192E-004	..........a	-327.66
	2	0.775	1.71040E-001	1.66184E-001	2.48859E-004	..........a	-327.66
	3	1.03333	1.70154E-001	1.63709E-001	2.41326E-004	..........a	-327.66
	4	1.29167	1.68559E-001	1.61312E-001	2.60659E-004	..........a	-327.66
	5	1.55	1.66426E-001	1.58992E-001	2.52592E-004	..........a	-327.66
	6	1.80833	1.64040E-001	1.56749E-001	2.40659E-004	..........a	-327.66
	7	2.06667	1.61616E-001	1.54572E-001	2.41192E-004	..........a	-327.66
	8	2.325	1.59255E-001	1.52460E-001	2.49592E-004	..........a	-327.66
	9	2.58333	1.56981E-001	1.50416E-001	2.42259E-004	..........a	-327.66
	10	2.84167	1.54790E-001	1.48426E-001	2.46859E-004	..........a	-327.66
	11	3.1	1.52671E-001	1.46497E-001	2.35192E-004	..........a	-327.66
	12	3.35833	1.50617E-001	1.44616E-001	2.44659E-004	..........a	-327.66
	13	3.61667	1.48623E-001	1.42793E-001	2.43792E-004	..........a	-327.66
	14	3.875	1.46685E-001	1.41011E-001	2.44926E-004	..........a	-327.66
	15	4.13333	1.44801E-001	1.39266E-001	2.30792E-004	..........a	-327.66
	16	4.39167	1.42967E-001	1.37572E-001	2.37392E-004	..........a	-327.66
	17	4.65	1.41180E-001	1.35937E-001	2.33126E-004	..........a	-327.66
	18	4.90833	1.39438E-001	1.34326E-001	2.34659E-004	..........a	-327.66
	19	5.16667	1.37742E-001	1.32767E-001	2.45326E-004	..........a	-327.66
	20	5.425	1.36091E-001	1.31241E-001	2.29992E-004	..........a	-327.66
	21	5.68333	1.34483E-001	1.29746E-001	2.28326E-004	..........a	-327.66
	22	5.94167	1.32915E-001	1.28283E-001	2.34259E-004	..........a	-327.66
	23	6.2	1.31383E-001	1.26845E-001	2.30059E-004	..........a	-327.66
	24	6.45833	1.29885E-001	1.25445E-001	2.35126E-004	..........a	-327.66
	25	6.71667	1.28418E-001	1.24078E-001	2.40726E-004	..........a	-327.66
	26	6.975	1.26982E-001	1.22741E-001	2.36926E-004	..........a	-327.66
	27	7.23333	1.25579E-001	1.21430E-001	2.41126E-004	..........a	-327.66
	28	7.49167	1.24207E-001	1.20139E-001	2.41392E-004	..........a	-327.66
	29	7.75	1.22864E-001	1.18872E-001	2.39859E-004	..........a	-327.66
	30	8.00833	1.21548E-001	1.17636E-001	2.32926E-004	..........a	-327.66
	31	8.26667	1.20257E-001	1.16418E-001	2.35859E-004	..........a	-327.66
	32	8.525	1.18991E-001	1.15237E-001	2.35259E-004	..........a	-327.66
	33	8.78333	1.17752E-001	1.14145E-001	2.42792E-004	..........a	-327.66
	34	9.04167	1.16545E-001	1.13083E-001	2.41726E-004	..........a	-327.66
	35	9.3	1.15380E-001	1.12043E-001	2.46526E-004	..........a	-327.66
	36	9.5583	1.14261E-001	1.11007E-001	2.43259E-004	..........a	-327.66
	37	9.8167	1.13180E-001	1.09956E-001	2.46726E-004	..........a	-327.66
	38	10.075	1.12124E-001	1.08915E-001	2.28592E-004	..........a	-327.66
EOC	QUANT	0.1121244	Open Circuit (V)
PSTATMODEL	IQUANT	7	Pstat Model
PSTATSECTION	LABEL	REF600P-43058	Pstat Section
PSTATSERIALNO	LABEL	43058	Pstat Serial Number
CTRLMODE	IQUANT	1	Control Mode
ELECTROMETER	IQUANT	0	RE=0 or CS=1
IESTAB	IQUANT	2	I/E Stability
CASPEED	IQUANT	4	Control Amp Speed
CONVENTION	IQUANT	1	Current Convention
ICHRANGE	IQUANT	2	Ich Range
ICHRANGEMODE	TOGGLE	F	Ich Auto Range
ICHOFFSETENABLE	TOGGLE	F	Ich Offset Enable
ICHOFFSET	QUANT	0	Ich Offset (V)
ICHFILTER	IQUANT	2	Ich Filter
VCHRANGE	IQUANT	2	Vch Range
VCHRANGEMODE	TOGGLE	F	Vch Auto Range
VCHOFFSETENABLE	TOGGLE	F	Vch Offset Enable
VCHOFFSET	QUANT	0	Vch Offset (V)
VCHFILTER	IQUANT	2	Vch Filter
ACHRANGE	IQUANT	2	Ach Range
ACHOFFSETENABLE	TOGGLE	F	Ach Offset Enable
ACHOFFSET	QUANT	0	Ach Offset (V)
ACHFILTER	IQUANT	1	Ach Filter
IERANGELOWERLIMIT	IQUANT	1	I/E Range Lower Limit
IERANGEMODE	TOGGLE	T	I/E AutoRange
IERANGE	IQUANT	4	I/E Range
POSFEEDENABLE	TOGGLE	F	Positive Feedback IR Comp
POSFEEDRESISTANCE	QUANT	0	Positive Feedback Resistance (ohm)
ACHSELECT	IQUANT	4	Ach Select
SENSECABLEID	IQUANT	7	Sense Cable ID
PWRCABLEID	IQUANT	7	Power Cable ID
DCCALDATE	LABEL	3/22/2024	DC Calibration Date
ACCALDATE	LABEL	3/22/2024	AC Calibration Date
THERMOSELECT	IQUANT	1	Thermo Select
FRAMEWORKVERSION	LABEL	7.8.4	Framework Version
INSTRUMENTVERSION	LABEL	4.42	Instrument Version
CURVE1	TABLE
	Pt	T	Vf	Im	Vu	Sig	Ach	IERange	Over	Temp
	#	s	V vs. Ref.	A	V	V	V	#	bits	deg C
	0	0.2	1.12168E-001	6.96096E-009	0.00000E+000	1.12100E-001	1.00449E-003	5	..........a	-327.66
	3	0.8	1.42179E-001	1.90145E-008	0.00000E+000	1.42100E-001	1.00789E-003	5	..........a	-327.66
	6	1.4	1.72259E-001	2.78858E-008	0.00000E+000	1.72100E-001	1.00469E-003	5	..........a	-327.66
	9	2	2.02161E-001	3.66640E-008	0.00000E+000	2.02100E-001	1.00679E-003	5	..........a	-327.66
	12	2.6	2.32066E-001	4.44155E-008	0.00000E+000	2.32100E-001	1.01439E-003	5	..........a	-327.66
	15	3.2	2.62100E-001	5.00409E-008	0.00000E+000	2.62100E-001	1.01439E-003	5	..........a	-327.66
	18	3.8	2.92148E-001	5.42012E-008	0.00000E+000	2.92100E-001	9.83292E-004	5	..........a	-327.66
	21	4.4	3.21874E-001	5.83459E-008	0.00000E+000	3.22100E-001	1.00269E-003	5	..........a	-327.66
	24	5	3.52068E-001	6.33129E-008	0.00000E+000	3.52100E-001	1.01779E-003	5	..........a	-327.66
	27	5.6	3.82043E-001	6.93233E-008	0.00000E+000	3.82100E-001	1.02589E-003	5	..........a	-327.66
	30	6.2	4.12135E-001	7.68964E-008	0.00000E+000	4.12100E-001	9.87892E-004	5	..........a	-327.66
	33	6.8	4.42047E-001	8.62359E-008	0.00000E+000	4.42100E-001	9.97992E-004	5	..........a	-327.66
	36	7.4	4.72077E-001	9.74045E-008	0.00000E+000	4.72100E-001	1.00169E-003	5	..........a	-327.66
	39	8	5.02037E-001	1.10125E-007	0.00000E+000	5.02100E-001	1.00379E-003	5	..........a	-327.66
	42	8.6	5.32131E-001	1.23511E-007	0.00000E+000	5.32100E-001	1.00139E-003	5	..........a	-327.66
	45	9.2	5.62003E-001	1.36701E-007	0.00000E+000	5.62100E-001	1.00579E-003	5	..........a	-327.66
	48	9.8	5.91992E-001	1.49735E-007	0.00000E+000	5.92100E-001	1.01799E-003	5	..........a	-327.66
	51	10.4	6.22006E-001	1.63021E-007	0.00000E+000	6.22100E-001	1.01499E-003	5	..........a	-327.66
	54	11	6.51991E-001	1.77054E-007	0.00000E+000	6.52100E-001	1.02129E-003	5	..........a	-327.66
	57	11.6	6.81951E-001	1.91914E-007	0.00000E+000	6.82100E-001	1.01559E-003	5	..........a	-327.66
	60	12.2	7.11924E-001	2.07728E-007	0.00000E+000	7.12100E-001	1.02109E-003	5	..........a	-327.66
	63	12.8	7.41984E-001	2.24719E-007	0.00000E+000	7.42100E-001	1.01059E-003	5	..........a	-327.66
	66	13.4	7.71938E-001	2.42875E-007	0.00000E+000	7.72100E-001	9.92592E-004	5	..........a	-327.66
	69	14	8.01933E-001	2.62477E-007	0.00000E+000	8.02100E-001	1.02379E-003	5	..........a	-327.66
	72	14.6	7.71986E-001	1.74103E-007	0.00000E+000	7.72100E-001	1.00339E-003	5	..........a	-327.66
	75	15.2	7.41988E-001	1.32188E-007	0.00000E+000	7.42100E-001	1.02599E-003	5	..........a	-327.66
	78	15.8	7.11948E-001	1.04856E-007	0.00000E+000	7.12100E-001	1.02169E-003	5	..........a	-327.66
	81	16.4	6.81955E-001	8.47606E-008	0.00000E+000	6.82100E-001	1.02209E-003	5	..........a	-327.66
	84	17	6.52060E-001	6.90166E-008	0.00000E+000	6.52100E-001	1.00429E-003	5	..........a	-327.66
	87	17.6	6.22066E-001	5.60644E-008	0.00000E+000	6.22100E-001	1.01779E-003	5	..........a	-327.66
	90	18.2	5.92039E-001	4.52998E-008	0.00000E+000	5.92100E-001	1.00519E-003	5	..........a	-327.66
	93	18.8	5.62097E-001	3.59733E-008	0.00000E+000	5.62100E-001	1.00869E-003	5	..........a	-327.66
	96	19.4	5.32167E-001	2.77789E-008	0.00000E+000	5.32100E-001	9.93292E-004	5	..........a	-327.66
	99	20	5.02114E-001	2.04153E-008	0.00000E+000	5.02100E-001	9.97392E-004	5	..........a	-327.66
	102	20.6	4.72087E-001	1.37751E-008	0.00000E+000	4.72100E-001	1.00509E-003	5	..........a	-327.66
	105	21.2	4.42080E-001	7.23856E-009	0.00000E+000	4.42100E-001	1.00569E-003	5	..........a	-327.66
	108	21.8	4.12215E-001	1.38650E-009	0.00000E+000	4.12100E-001	9.90492E-004	5	..........a	-327.66
	111	22.4	3.82142E-001	-4.28741E-009	0.00000E+000	3.82100E-001	1.01279E-003	5	..........a	-327.66
	114	23	3.52150E-001	-9.93404E-009	0.00000E+000	3.52100E-001	9.98592E-004	5	..........a	-327.66
	117	23.6	3.22132E-001	-1.57836E-008	0.00000E+000	3.22100E-001	9.84292E-004	5	..........a	-327.66
	120	24.2	2.92177E-001	-2.22498E-008	0.00000E+000	2.92100E-001	1.00529E-003	5	..........a	-327.66
	123	24.8	2.62164E-001	-2.95872E-008	0.00000E+000	2.62100E-001	9.88592E-004	5	..........a	-327.66
	126	25.4	2.32120E-001	-3.77175E-008	0.00000E+000	2.32100E-001	1.01679E-003	5	..........a	-327.66
	129	26	2.02195E-001	-4.54165E-008	0.00000E+000	2.02100E-001	9.97092E-004	5	..........a	-327.66
	132	26.6	1.72316E-001	-5.03786E-008	0.00000E+000	1.72100E-001	1.01209E-003	5	..........a	-327.66
	135	27.2	1.42222E-001	-5.24108E-008	0.00000E+000	1.42100E-001	9.92492E-004	5	..........a	-327.66
	138	27.8	1.12200E-001	-5.28072E-008	0.00000E+000	1.12100E-001	1.01159E-003	5	..........a	-327.66
	141	28.4	8.22013E-002	-5.30504E-008	0.00000E+000	8.21000E-002	1.01059E-003	5	..........a	-327.66
	144	29	5.22766E-002	-5.38169E-008	0.00000E+000	5.21000E-002	9.87892E-004	5	..........a	-327.66
	147	29.6	2.21975E-002	-5.49042E-008	0.00000E+000	2.21000E-002	1.00859E-003	5	..........a	-327.66
	150	30.2	-7.79581E-003	-5.68166E-008	0.00000E+000	-7.89999E-003	1.00079E-003	5	..........a	-327.66
	153	30.8	-3.78273E-002	-5.69354E-008	0.00000E+000	-3.79000E-002	1.01639E-003	5	..........a	-327.66
	156	31.4	-6.77670E-002	-5.71838E-008	0.00000E+000	-6.79000E-002	1.01379E-003	5	..........a	-327.66
	159	32	-9.78153E-002	-5.72800E-008	0.00000E+000	-9.79000E-002	1.00129E-003	5	..........a	-327.66
	162	32.6	-1.27891E-001	-5.88165E-008	0.00000E+000	-1.27900E-001	1.03229E-003	5	..........a	-327.66
	165	33.2	-1.57823E-001	-6.17238E-008	0.00000E+000	-1.57900E-001	9.92292E-004	5	..........a	-327.66
	168	33.8	-1.87692E-001	-6.58436E-008	0.00000E+000	-1.87900E-001	1.01949E-003	5	..........a	-327.66
	171	34.4	-2.17791E-001	-7.05947E-008	0.00000E+000	-2.17900E-001	9.83892E-004	5	..........a	-327.66
	174	35	-2.47734E-001	-7.47223E-008	0.00000E+000	-2.47850E-001	9.91292E-004	5	..........a	-327.66
	177	35.6	-2.77730E-001	-7.77044E-008	0.00000E+000	-2.77850E-001	9.91292E-004	5	..........a	-327.66
	180	36.2	-3.07645E-001	-8.04148E-008	0.00000E+000	-3.07850E-001	1.00479E-003	5	..........a	-327.66
	183	36.8	-3.37725E-001	-8.35283E-008	0.00000E+000	-3.37850E-001	1.02689E-003	5	..........a	-327.66
	186	37.4	-3.67656E-001	-8.68439E-008	0.00000E+000	-3.67850E-001	1.02379E-003	5	..........a	-327.66
	189	38	-3.97716E-001	-9.05223E-008	0.00000E+000	-3.97850E-001	1.01409E-003	5	..........a	-327.66
	192	38.6	-4.27630E-001	-9.47491E-008	0.00000E+000	-4.27850E-001	9.96592E-004	5	..........a	-327.66
	195	39.2	-4.57710E-001	-9.95094E-008	0.00000E+000	-4.57850E-001	1.01079E-003	5	..........a	-327.66
	198	39.8	-4.87686E-001	-1.04546E-007	0.00000E+000	-4.87850E-001	1.01619E-003	5	..........a	-327.66
	201	40.4	-5.17693E-001	-1.09971E-007	0.00000E+000	-5.17850E-001	1.00389E-003	5	..........a	-327.66
	204	41	-5.47610E-001	-1.15987E-007	0.00000E+000	-5.47850E-001	1.01369E-003	5	..........a	-327.66
	207	41.6	-5.77676E-001	-1.22667E-007	0.00000E+000	-5.77850E-001	9.99892E-004	5	..........a	-327.66
	209	42	-5.97672E-001	-1.28020E-007	0.00000E+000	-5.97850E-001	9.99992E-004	5	..........a	-327.66
CURVE2	TABLE
	Pt	T	Vf	Im	Vu	Sig	Ach	IERange	Over	Temp
	#	s	V vs. Ref.	A	V	V	V	#	bits	deg C
	210	42.2	-5.89825E-001	-1.17311E-007	0.00000E+000	-5.90000E-001	9.91292E-004	5	..........a	-327.66
	213	42.8	-5.59905E-001	-9.47554E-008	0.00000E+000	-5.60000E-001	1.01149E-003	5	..........a	-327.66
	216	43.4	-5.29834E-001	-7.95750E-008	0.00000E+000	-5.30000E-001	1.01139E-003	5	..........a	-327.66
	219	44	-4.99816E-001	-6.79940E-008	0.00000E+000	-5.00000E-001	9.81492E-004	5	..........a	-327.66
	222	44.6	-4.69854E-001	-5.79037E-008	0.00000E+000	-4.70000E-001	9.98292E-004	5	..........a	-327.66
	225	45.2	-4.39825E-001	-4.90265E-008	0.00000E+000	-4.40000E-001	1.00089E-003	5	..........a	-327.66
	228	45.8	-4.09864E-001	-4.10810E-008	0.00000E+000	-4.10000E-001	1.00349E-003	5	..........a	-327.66
	231	46.4	-3.79825E-001	-3.40329E-008	0.00000E+000	-3.80000E-001	9.79992E-004	5	..........a	-327.66
	234	47	-3.49885E-001	-2.76415E-008	0.00000E+000	-3.50000E-001	9.96892E-004	5	..........a	-327.66
	237	47.6	-3.19858E-001	-2.15399E-008	0.00000E+000	-3.20000E-001	1.00469E-003	5	..........a	-327.66
	240	48.2	-2.89880E-001	-1.57580E-008	0.00000E+000	-2.90000E-001	9.87092E-004	5	..........a	-327.66
	243	48.8	-2.59823E-001	-1.06105E-008	0.00000E+000	-2.60000E-001	9.82692E-004	5	..........a	-327.66
	246	49.4	-2.29918E-001	-5.50234E-009	0.00000E+000	-2.30000E-001	1.00039E-003	5	..........a	-327.66
	249	50	-1.99969E-001	-5.86155E-010	0.00000E+000	-2.00000E-001	1.00209E-003	5	..........a	-327.66
	252	50.6	-1.69898E-001	4.14709E-009	0.00000E+000	-1.70000E-001	9.97392E-004	5	..........a	-327.66
	255	51.2	-1.39855E-001	8.52769E-009	0.00000E+000	-1.40000E-001	9.98892E-004	5	..........a	-327.66
	258	51.8	-1.10031E-001	1.26022E-008	0.00000E+000	-1.10000E-001	1.00069E-003	5	..........a	-327.66
	261	52.4	-7.99813E-002	1.66922E-008	0.00000E+000	-8.00000E-002	1.03429E-003	5	..........a	-327.66
	264	53	-4.99061E-002	2.06400E-008	0.00000E+000	-5.00000E-002	1.01009E-003	5	..........a	-327.66
	267	53.6	-1.99327E-002	2.47244E-008	0.00000E+000	-2.00000E-002	9.91992E-004	5	..........a	-327.66
	270	54.2	1.00789E-002	2.90242E-008	0.00000E+000	1.00000E-002	9.93192E-004	5	..........a	-327.66
	273	54.8	4.00103E-002	3.38024E-008	0.00000E+000	4.00000E-002	1.00469E-003	5	..........a	-327.66
	276	55.4	6.99753E-002	3.93601E-008	0.00000E+000	7.00000E-002	1.00989E-003	5	..........a	-327.66
	279	56	1.00090E-001	4.61221E-008	0.00000E+000	1.00000E-001	9.91792E-004	5	..........a	-327.66
	282	56.6	1.29999E-001	5.47127E-008	0.00000E+000	1.30000E-001	1.01329E-003	5	..........a	-327.66
	285	57.2	1.59978E-001	6.41610E-008	0.00000E+000	1.60000E-001	1.03039E-003	5	..........a	-327.66
	288	57.8	1.90085E-001	7.19322E-008	0.00000E+000	1.90000E-001	9.97692E-004	5	..........a	-327.66
	291	58.4	2.19899E-001	7.82664E-008	0.00000E+000	2.20000E-001	9.99592E-004	5	..........a	-327.66
	294	59	2.49968E-001	8.08910E-008	0.00000E+000	2.50000E-001	1.00459E-003	5	..........a	-327.66
	297	59.6	2.79941E-001	8.13890E-008	0.00000E+000	2.80000E-001	9.96992E-004	5	..........a	-327.66
	300	60.2	3.10003E-001	8.22508E-008	0.00000E+000	3.10000E-001	1.02249E-003	5	..........a	-327.66
	303	60.8	3.40020E-001	8.41892E-008	0.00000E+000	3.40000E-001	1.00299E-003	5	..........a	-327.66
	306	61.4	3.70011E-001	8.71765E-008	0.00000E+000	3.70000E-001	1.00279E-003	5	..........a	-327.66
	309	62	3.99981E-001	9.11298E-008	0.00000E+000	4.00000E-001	1.00709E-003	5	..........a	-327.66
	312	62.6	4.29965E-001	9.58150E-008	0.00000E+000	4.30000E-001	1.03079E-003	5	..........a	-327.66
	315	63.2	4.59963E-001	1.01327E-007	0.00000E+000	4.60000E-001	9.97392E-004	5	..........a	-327.66
	318	63.8	4.89942E-001	1.07798E-007	0.00000E+000	4.90000E-001	1.00399E-003	5	..........a	-327.66
	321	64.4	5.19940E-001	1.15455E-007	0.00000E+000	5.20000E-001	1.01089E-003	5	..........a	-327.66
	324	65	5.49999E-001	1.23739E-007	0.00000E+000	5.50000E-001	9.95292E-004	5	..........a	-327.66
	327	65.6	5.79965E-001	1.32193E-007	0.00000E+000	5.80000E-001	1.00709E-003	5	..........a	-327.66
	330	66.2	6.09918E-001	1.40849E-007	0.00000E+000	6.10000E-001	1.01669E-003	5	..........a	-327.66
	333	66.8	6.39870E-001	1.50537E-007	0.00000E+000	6.40000E-001	1.01159E-003	5	..........a	-327.66
	336	67.4	6.69941E-001	1.62106E-007	0.00000E+000	6.70000E-001	9.99392E-004	5	..........a	-327.66
	339	68	6.99880E-001	1.75961E-007	0.00000E+000	7.00000E-001	1.01499E-003	5	..........a	-327.66
	342	68.6	7.29873E-001	1.91997E-007	0.00000E+000	7.30000E-001	9.96992E-004	5	..........a	-327.66
	345	69.2	7.59868E-001	2.09860E-007	0.00000E+000	7.60000E-001	1.01329E-003	5	..........a	-327.66
	348	69.8	7.89945E-001	2.29438E-007	0.00000E+000	7.90000E-001	1.01719E-003	5	..........a	-327.66
	351	70.4	7.79858E-001	1.75719E-007	0.00000E+000	7.80000E-001	9.99592E-004	5	..........a	-327.66
	354	71	7.49959E-001	1.30576E-007	0.00000E+000	7.50000E-001	1.00479E-003	5	..........a	-327.66
	357	71.6	7.19911E-001	1.02887E-007	0.00000E+000	7.20000E-001	1.01029E-003	5	..........a	-327.66
	360	72.2	6.89887E-001	8.30083E-008	0.00000E+000	6.90000E-001	1.01199E-003	5	..........a	-327.66
	363	72.8	6.59961E-001	6.76362E-008	0.00000E+000	6.60000E-001	1.00979E-003	5	..........a	-327.66
[...]
	1013	202.8	-2.39904E-001	-7.89790E-008	0.00000E+000	-2.40000E-001	1.01019E-003	5	..........a	-327.66
	1016	203.4	-2.69839E-001	-8.18345E-008	0.00000E+000	-2.70000E-001	1.02689E-003	5	..........a	-327.66
	1019	204	-2.99812E-001	-8.47801E-008	0.00000E+000	-3.00000E-001	9.96392E-004	5	..........a	-327.66
	1022	204.6	-3.29856E-001	-8.81076E-008	0.00000E+000	-3.30000E-001	1.01169E-003	5	..........a	-327.66
	1025	205.2	-3.59862E-001	-9.14697E-008	0.00000E+000	-3.60000E-001	1.00619E-003	5	..........a	-327.66
	1028	205.8	-3.89887E-001	-9.46971E-008	0.00000E+000	-3.90000E-001	1.00899E-003	5	..........a	-327.66
	1031	206.4	-4.19715E-001	-9.82566E-008	0.00000E+000	-4.20000E-001	1.00939E-003	5	..........a	-327.66
	1034	207	-4.49825E-001	-1.02435E-007	0.00000E+000	-4.50000E-001	9.96892E-004	5	..........a	-327.66
	1037	207.6	-4.79797E-001	-1.07161E-007	0.00000E+000	-4.80000E-001	1.00229E-003	5	..........a	-327.66
	1040	208.2	-5.09809E-001	-1.12248E-007	0.00000E+000	-5.10000E-001	1.02179E-003	5	..........a	-327.66
	1043	208.8	-5.39734E-001	-1.17774E-007	0.00000E+000	-5.40000E-001	1.02109E-003	5	..........a	-327.66
	1046	209.4	-5.69840E-001	-1.23952E-007	0.00000E+000	-5.70000E-001	1.00109E-003	5	..........a	-327.66
	1049	210	-5.99889E-001	-1.31080E-007	0.00000E+000	-6.00000E-001	1.00449E-003	5	..........a	-327.66
CURVE5	TABLE
	Pt	T	Vf	Im	Vu	Sig	Ach	IERange	Over	Temp
	#	s	V vs. Ref.	A	V	V	V	#	bits	deg C
	1050	210.2	-5.89819E-001	-1.18390E-007	0.00000E+000	-5.90000E-001	1.00049E-003	5	..........a	-327.66
	1051	210.4	-5.79767E-001	-1.09442E-007	0.00000E+000	-5.80000E-001	9.91792E-004	5	..........a	-327.66
	1052	210.6	-5.69836E-001	-1.02218E-007	0.00000E+000	-5.70000E-001	1.01039E-003	5	..........a	-327.66
	1053	210.8	-5.59811E-001	-9.58167E-008	0.00000E+000	-5.60000E-001	9.94392E-004	5	..........a	-327.66
	1054	211	-5.49832E-001	-9.01941E-008	0.00000E+000	-5.50000E-001	1.00649E-003	5	..........a	-327.66
	1055	211.2	-5.39731E-001	-8.50741E-008	0.00000E+000	-5.40000E-001	1.00429E-003	5	..........a	-327.66
	1056	211.4	-5.29820E-001	-8.02763E-008	0.00000E+000	-5.30000E-001	1.00239E-003	5	..........a	-327.66
	1057	211.6	-5.19808E-001	-7.59351E-008	0.00000E+000	-5.20000E-001	1.01879E-003	5	..........a	-327.66
	1058	211.8	-5.09836E-001	-7.18693E-008	0.00000E+000	-5.10000E-001	9.95992E-004	5	..........a	-327.66
	1059	212	-4.99807E-001	-6.79862E-008	0.00000E+000	-5.00000E-001	9.98992E-004	5	..........a	-327.66
	1060	212.2	-4.89834E-001	-6.43645E-008	0.00000E+000	-4.90000E-001	1.00819E-003	5	..........a	-327.66
	1061	212.4	-4.79816E-001	-6.08132E-008	0.00000E+000	-4.80000E-001	9.99992E-004	5	..........a	-327.66
	1062	212.6	-4.69836E-001	-5.74960E-008	0.00000E+000	-4.70000E-001	1.00719E-003	5	..........a	-327.66
	1063	212.8	-4.59769E-001	-5.43139E-008	0.00000E+000	-4.60000E-001	1.00299E-003	5	..........a	-327.66
	1064	213	-4.49831E-001	-5.13766E-008	0.00000E+000	-4.50000E-001	1.00419E-003	5	..........a	-327.66
	1065	213.2	-4.39913E-001	-4.84105E-008	0.00000E+000	-4.40000E-001	1.00709E-003	5	..........a	-327.66
	1066	213.4	-4.29833E-001	-4.56489E-008	0.00000E+000	-4.30000E-001	9.95492E-004	5	..........a	-327.66
	1067	213.6	-4.19766E-001	-4.29865E-008	0.00000E+000	-4.20000E-001	1.01569E-003	5	..........a	-327.66
	1068	213.8	-4.09866E-001	-4.03196E-008	0.00000E+000	-4.10000E-001	1.02309E-003	5	..........a	-327.66
	1069	214	-3.99865E-001	-3.78469E-008	0.00000E+000	-4.00000E-001	1.01219E-003	5	..........a	-327.66
	1070	214.2	-3.89876E-001	-3.54855E-008	0.00000E+000	-3.90000E-001	1.01829E-003	5	..........a	-327.66
	1071	214.4	-3.79837E-001	-3.30915E-008	0.00000E+000	-3.80000E-001	1.00589E-003	5	..........a	-327.66
	1072	214.6	-3.69866E-001	-3.09023E-008	0.00000E+000	-3.70000E-001	1.00919E-003	5	..........a	-327.66
	1073	214.8	-3.59868E-001	-2.87246E-008	0.00000E+000	-3.60000E-001	9.93592E-004	5	..........a	-327.66
	1074	215	-3.49865E-001	-2.65860E-008	0.00000E+000	-3.50000E-001	1.00709E-003	5	..........a	-327.66
	1075	215.2	-3.39794E-001	-2.45793E-008	0.00000E+000	-3.40000E-001	9.83692E-004	5	..........a	-327.66
	1076	215.4	-3.29904E-001	-2.25497E-008	0.00000E+000	-3.30000E-001	1.01889E-003	5	..........a	-327.66
	1077	215.6	-3.19854E-001	-2.06015E-008	0.00000E+000	-3.20000E-001	1.00109E-003	5	..........a	-327.66
	1078	215.8	-3.09876E-001	-1.86622E-008	0.00000E+000	-3.10000E-001	1.02309E-003	5	..........a	-327.66
	1079	216	-2.99851E-001	-1.68220E-008	0.00000E+000	-3.00000E-001	1.01439E-003	5	..........a	-327.66
	1080	216.2	-2.89870E-001	-1.49782E-008	0.00000E+000	-2.90000E-001	1.02389E-003	5	..........a	-327.66
	1081	216.4	-2.79865E-001	-1.31852E-008	0.00000E+000	-2.80000E-001	1.00879E-003	5	..........a	-327.66
	1082	216.6	-2.69861E-001	-1.14024E-008	0.00000E+000	-2.70000E-001	9.99692E-004	5	..........a	-327.66
	1083	216.8	-2.59812E-001	-9.66869E-009	0.00000E+000	-2.60000E-001	1.02769E-003	5	..........a	-327.66
	1084	217	-2.49872E-001	-7.94861E-009	0.00000E+000	-2.50000E-001	9.93992E-004	5	..........a	-327.66
	1085	217.2	-2.39871E-001	-6.22829E-009	0.00000E+000	-2.40000E-001	1.00749E-003	5	..........a	-327.66
	1086	217.4	-2.29888E-001	-4.55791E-009	0.00000E+000	-2.30000E-001	1.00099E-003	5	..........a	-327.66
	1087	217.6	-2.19856E-001	-2.90306E-009	0.00000E+000	-2.20000E-001	9.86192E-004	5	..........a	-327.66
	1088	217.8	-2.09937E-001	-1.21605E-009	0.00000E+000	-2.10000E-001	1.01749E-003	5	..........a	-327.66
	1089	218	-1.99952E-001	4.59244E-010	0.00000E+000	-2.00000E-001	1.00369E-003	5	..........a	-327.66
	1090	218.2	-1.90229E-001	2.05654E-009	0.00000E+000	-1.90000E-001	1.01059E-003	5	..........a	-327.66
	1091	218.4	-1.79924E-001	3.68501E-009	0.00000E+000	-1.80000E-001	9.88592E-004	5	..........a	-327.66
	1092	218.6	-1.69887E-001	5.31565E-009	0.00000E+000	-1.70000E-001	1.01619E-003	5	..........a	-327.66
	1093	218.8	-1.59996E-001	6.89061E-009	0.00000E+000	-1.60000E-001	1.01189E-003	5	..........a	-327.66
	1094	219	-1.49972E-001	8.45563E-009	0.00000E+000	-1.50000E-001	1.00249E-003	5	..........a	-327.66
	1095	219.2	-1.39865E-001	1.00104E-008	0.00000E+000	-1.40000E-001	1.01449E-003	5	..........a	-327.66
	1096	219.4	-1.29986E-001	1.15138E-008	0.00000E+000	-1.30000E-001	1.01119E-003	5	..........a	-327.66
	1097	219.6	-1.19985E-001	1.30217E-008	0.00000E+000	-1.20000E-001	1.00949E-003	5	..........a	-327.66
	1098	219.8	-1.09949E-001	1.45037E-008	0.00000E+000	-1.10000E-001	1.02129E-003	5	..........a	-327.66
	1099	220	-9.98831E-002	1.59770E-008	0.00000E+000	-1.00000E-001	1.00229E-003	5	..........a	-327.66
	1100	220.2	-8.99036E-002	1.74278E-008	0.00000E+000	-9.00000E-002	1.00169E-003	5	..........a	-327.66
	1101	220.4	-7.99680E-002	1.89063E-008	0.00000E+000	-8.00000E-002	1.01529E-003	5	..........a	-327.66
	1102	220.6	-6.99338E-002	2.03293E-008	0.00000E+000	-7.00000E-002	9.88192E-004	5	..........a	-327.66
	1103	220.8	-5.98357E-002	2.17815E-008	0.00000E+000	-6.00000E-002	1.00799E-003	5	..........a	-327.66
	1104	221	-4.99667E-002	2.32231E-008	0.00000E+000	-5.00000E-002	1.01149E-003	5	..........a	-327.66
	1105	221.2	-3.99152E-002	2.46652E-008	0.00000E+000	-4.00000E-002	1.00219E-003	5	..........a	-327.66
	1106	221.4	-2.99441E-002	2.60777E-008	0.00000E+000	-3.00000E-002	1.01849E-003	5	..........a	-327.66
	1107	221.6	-1.99022E-002	2.75509E-008	0.00000E+000	-2.00000E-002	1.01159E-003	5	..........a	-327.66
	1108	221.8	-9.92726E-003	2.90022E-008	0.00000E+000	-1.00000E-002	1.00669E-003	5	..........a	-327.66
	1109	222	8.84166E-006	3.04886E-008	0.00000E+000	7.45058E-009	1.03569E-003	5	..........a	-327.66
	1110	222.2	1.00961E-002	3.20112E-008	0.00000E+000	1.00000E-002	1.01019E-003	5	..........a	-327.66
	1111	222.4	2.00621E-002	3.35789E-008	0.00000E+000	2.00000E-002	1.02839E-003	5	..........a	-327.66
	1112	222.6	3.00600E-002	3.51769E-008	0.00000E+000	3.00000E-002	1.02099E-003	5	..........a	-327.66
	1113	222.8	4.00374E-002	3.68143E-008	0.00000E+000	4.00000E-002	1.01099E-003	5	..........a	-327.66
	1114	223	4.99985E-002	3.84955E-008	0.00000E+000	5.00000E-002	1.01649E-003	5	..........a	-327.66
	1115	223.2	6.00936E-002	4.02633E-008	0.00000E+000	6.00000E-002	1.00019E-003	5	..........a	-327.66
	1116	223.4	6.99997E-002	4.21046E-008	0.00000E+000	7.00000E-002	1.01109E-003	5	..........a	-327.66
	1117	223.6	7.99664E-002	4.39823E-008	0.00000E+000	8.00000E-002	1.02409E-003	5	..........a	-327.66
	1118	223.8	9.00840E-002	4.59880E-008	0.00000E+000	9.00000E-002	1.00129E-003	5	..........a	-327.66
	1119	224	1.00113E-001	4.81173E-008	0.00000E+000	1.00000E-001	1.00819E-003	5	..........a	-327.66
	1120	224.2	1.10079E-001	5.04056E-008	0.00000E+000	1.10000E-001	1.01669E-003	5	..........a	-327.66