File: example_project/raw_outputs/20240424_ZZG_GM0016_HL03_E15_CV50.DTA
EXPLAIN
TAG	CV
TITLE	LABEL	Cyclic Voltammetry	Test &Identifier
DATE	LABEL	4/24/2024	Date
TIME	LABEL	19:57:56	Time
NOTES	NOTES	1	&Notes...

PSTAT	PSTAT	REF600P-43058	Potentiostat
VINIT	POTEN	0.00000E+000	T	Initial &E (V)
VLIMIT1	POTEN	-6.00000E-001	F	Scan Limit &1 (V)
VLIMIT2	POTEN	8.00000E-001	F	Scan Limit &2 (V)
VFINAL	POTEN	0.00000E+000	T	Final &E (V)
SCANRATE	QUANT	4.99999E+001	&Scan Rate (mV/s)
STEPSIZE	QUANT	1.00000E+001	St&ep Size (mV)
CYCLES	IQUANT	4	C&ycles (#)
IMODE	SELECTOR	0	I/E Range &Mode
IRANGE	QUANT	1.00000E-005	&Max Current (mA)
AREA	QUANT	1.00000E+000	Electrode &Area (cm^2)
ELECTRODETYPE	SELECTOR	0	Electrode Type
STRIPPING	TOGGLE	F	Used for Stripping
POLARITY	TOGGLE	F	Signal Polarity
CONDIT	TWOPARAM	F	1.50000E+001	0.00000E+000	Conditionin&g	Time(s)	E(V)
DELAY	TWOPARAM	T	1.00000E+001	0.00000E+000	Init. De&lay	Time(s)	Stab.(mV/s)
EQDELAY	QUANT	1.00000E+001	Equil. &Time (s)
IRCOMP	SELECTOR	0	IRCom&p
PFCOR	QUANT	5.00000E+001	PF Corr. (ohm)
SAMPLINGMODE	SELECTOR	1	Sampling &Mode
OCVCURVE	TABLE	39
	Pt	T	Vf	Vm	Ach	Over	Temp
	#	s	V vs. Ref.	V	V	bits	deg C
	0	0.258333	2.15551E-002	2.15551E-002	2.38992E-004	..........a	-327.66
	1	0.516667	2.15561E-002	2.16074E-002	2.44126E-004	..........a	-327.66
	2	0.775	2.15623E-002	2.16610E-002	2.39726E-004	..........a	-327.66
	3	1.03333	2.15801E-002	2.17103E-002	2.32926E-004	..........a	-327.66
	4	1.29167	2.16123E-002	2.17594E-002	2.29726E-004	..........a	-327.66
	5	1.55	2.16556E-002	2.18109E-002	2.44392E-004	..........a	-327.66
	6	1.80833	2.17045E-002	2.18595E-002	2.37259E-004	..........a	-327.66
	7	2.06667	2.17551E-002	2.19074E-002	2.33992E-004	..........a	-327.66
	8	2.325	2.18054E-002	2.19544E-002	2.43859E-004	..........a	-327.66
	9	2.58333	2.18547E-002	2.20007E-002	2.29326E-004	..........a	-327.66
	10	2.84167	2.19030E-002	2.20456E-002	2.29326E-004	..........a	-327.66
	11	3.1	2.19502E-002	2.20925E-002	2.29192E-004	..........a	-327.66
	12	3.35833	2.19967E-002	2.21397E-002	2.38059E-004	..........a	-327.66
	13	3.61667	2.20429E-002	2.21837E-002	2.22326E-004	..........a	-327.66
	14	3.875	2.20890E-002	2.22295E-002	2.37392E-004	..........a	-327.66
	15	4.13333	2.21349E-002	2.22739E-002	2.21526E-004	..........a	-327.66
	16	4.39167	2.21804E-002	2.23171E-002	2.29392E-004	..........a	-327.66
	17	4.65	2.22254E-002	2.23630E-002	2.50526E-004	..........a	-327.66
	18	4.90833	2.22701E-002	2.24071E-002	2.32926E-004	..........a	-327.66
	19	5.16667	2.23145E-002	2.24496E-002	2.30659E-004	..........a	-327.66
	20	5.425	2.23588E-002	2.24935E-002	2.24259E-004	..........a	-327.66
	21	5.68333	2.24028E-002	2.25345E-002	2.27126E-004	..........a	-327.66
	22	5.94167	2.24462E-002	2.25745E-002	2.18126E-004	..........a	-327.66
	23	6.2	2.24889E-002	2.26188E-002	2.38459E-004	..........a	-327.66
	24	6.45833	2.25310E-002	2.26611E-002	2.29859E-004	..........a	-327.66
	25	6.71667	2.25728E-002	2.26977E-002	2.34326E-004	..........a	-327.66
	26	6.975	2.26144E-002	2.27340E-002	2.37659E-004	..........a	-327.66
	27	7.23333	2.26549E-002	2.27732E-002	2.26526E-004	..........a	-327.66
	28	7.49167	2.26941E-002	2.28132E-002	2.24126E-004	..........a	-327.66
	29	7.75	2.27326E-002	2.28536E-002	2.37526E-004	..........a	-327.66
	30	8.00833	2.27712E-002	2.28914E-002	2.21926E-004	..........a	-327.66
	31	8.26667	2.28103E-002	2.29322E-002	2.13992E-004	..........a	-327.66
	32	8.525	2.28497E-002	2.29722E-002	2.40392E-004	..........a	-327.66
	33	8.78333	2.28892E-002	2.30099E-002	2.29326E-004	..........a	-327.66
	34	9.04167	2.29287E-002	2.30477E-002	2.33792E-004	..........a	-327.66
	35	9.3	2.29680E-002	2.30867E-002	2.19459E-004	..........a	-327.66
	36	9.5583	2.30068E-002	2.31262E-002	2.39059E-004	..........a	-327.66
	37	9.8167	2.30453E-002	2.31637E-002	2.21726E-004	..........a	-327.66
	38	10.075	2.30839E-002	2.32028E-002	2.32392E-004	..........a	-327.66
EOC	QUANT	0.0230839	Open Circuit (V)
PSTATMODEL	IQUANT	7	Pstat Model
PSTATSECTION	LABEL	REF600P-43058	Pstat Section
PSTATSERIALNO	LABEL	43058	Pstat Serial Number
CTRLMODE	IQUANT	1	Control Mode
ELECTROMETER	IQUANT	0	RE=0 or CS=1
IESTAB	IQUANT	2	I/E Stability
CASPEED	IQUANT	4	Control Amp Speed
CONVENTION	IQUANT	1	Current Convention
ICHRANGE	IQUANT	2	Ich Range
ICHRANGEMODE	TOGGLE	F	Ich Auto Range
ICHOFFSETENABLE	TOGGLE	F	Ich Offset Enable
ICHOFFSET	QUANT	0	Ich Offset (V)
ICHFILTER	IQUANT	2	Ich Filter
VCHRANGE	IQUANT	2	Vch Range
VCHRANGEMODE	TOGGLE	F	Vch Auto Range
VCHOFFSETENABLE	TOGGLE	F	Vch Offset Enable
VCHOFFSET	QUANT	0	Vch Offset (V)
VCHFILTER	IQUANT	2	Vch Filter
ACHRANGE	IQUANT	2	Ach Range
ACHOFFSETENABLE	TOGGLE	F	Ach Offset Enable
ACHOFFSET	QUANT	0	Ach Offset (V)
ACHFILTER	IQUANT	1	Ach Filter
IERANGELOWERLIMIT	IQUANT	1	I/E Range Lower Limit
IERANGEMODE	TOGGLE	T	I/E AutoRange
IERANGE	IQUANT	4	I/E Range
POSFEEDENABLE	TOGGLE	F	Positive Feedback IR Comp
POSFEEDRESISTANCE	QUANT	0	Positive Feedback Resistance (ohm)
ACHSELECT	IQUANT	4	Ach Select
SENSECABLEID	IQUANT	7	Sense Cable ID
PWRCABLEID	IQUANT	7	Power Cable ID
DCCALDATE	LABEL	3/22/2024	DC Calibration Date
ACCALDATE	LABEL	3/22/2024	AC Calibration Date
THERMOSELECT	IQUANT	1	Thermo Select
FRAMEWORKVERSION	LABEL	7.8.4	Framework Version
INSTRUMENTVERSION	LABEL	4.42	Instrument Version
CURVE1	TABLE
	Pt	T	Vf	Im	Vu	Sig	Ach	IERange	Over	Temp
	#	s	V vs. Ref.	A	V	V	V	#	bits	deg C
	0	0.2	2.31569E-002	-7.35163E-011	0.00000E+000	2.31000E-002	1.02379E-003	5	..........a	-327.66
	2	0.6	3.16789E-003	-8.33384E-009	0.00000E+000	3.10000E-003	1.01309E-003	5	..........a	-327.66
	4	1	-1.68561E-002	-1.38800E-008	0.00000E+000	-1.69000E-002	9.92292E-004	5	..........a	-327.66
	6	1.4	-3.68122E-002	-1.85695E-008	0.00000E+000	-3.69000E-002	1.02339E-003	5	..........a	-327.66
	8	1.8	-5.68286E-002	-2.28894E-008	0.00000E+000	-5.69000E-002	1.00569E-003	5	..........a	-327.66
	10	2.2	-7.68671E-002	-2.70130E-008	0.00000E+000	-7.69000E-002	1.01679E-003	5	..........a	-327.66
	12	2.6	-9.68436E-002	-3.09312E-008	0.00000E+000	-9.69000E-002	1.03099E-003	5	..........a	-327.66
	14	3	-1.16858E-001	-3.48198E-008	0.00000E+000	-1.16900E-001	1.02859E-003	5	..........a	-327.66
	16	3.4	-1.36833E-001	-3.88033E-008	0.00000E+000	-1.36900E-001	1.03179E-003	5	..........a	-327.66
	18	3.8	-1.56876E-001	-4.28437E-008	0.00000E+000	-1.56900E-001	9.93492E-004	5	..........a	-327.66
	20	4.2	-1.76847E-001	-4.68987E-008	0.00000E+000	-1.76900E-001	1.02759E-003	5	..........a	-327.66
	22	4.6	-1.96844E-001	-5.10037E-008	0.00000E+000	-1.96900E-001	1.02879E-003	5	..........a	-327.66
	24	5	-2.16809E-001	-5.52386E-008	0.00000E+000	-2.16900E-001	1.00439E-003	5	..........a	-327.66
	26	5.4	-2.36842E-001	-5.95621E-008	0.00000E+000	-2.36900E-001	1.04459E-003	5	..........a	-327.66
	28	5.8	-2.56799E-001	-6.40586E-008	0.00000E+000	-2.56900E-001	1.00409E-003	5	..........a	-327.66
	30	6.2	-2.76824E-001	-6.87231E-008	0.00000E+000	-2.76900E-001	1.00619E-003	5	..........a	-327.66
	32	6.6	-2.96780E-001	-7.36063E-008	0.00000E+000	-2.96900E-001	1.00769E-003	5	..........a	-327.66
	34	7	-3.16846E-001	-7.87970E-008	0.00000E+000	-3.16900E-001	1.00689E-003	5	..........a	-327.66
	36	7.4	-3.36768E-001	-8.43632E-008	0.00000E+000	-3.36900E-001	1.01199E-003	5	..........a	-327.66
	38	7.8	-3.56800E-001	-9.01819E-008	0.00000E+000	-3.56900E-001	1.00549E-003	5	..........a	-327.66
	40	8.2	-3.76741E-001	-9.62637E-008	0.00000E+000	-3.76900E-001	1.00699E-003	5	..........a	-327.66
	42	8.6	-3.96754E-001	-1.02450E-007	0.00000E+000	-3.96900E-001	1.01979E-003	5	..........a	-327.66
	44	9	-4.16690E-001	-1.08553E-007	0.00000E+000	-4.16900E-001	9.97192E-004	5	..........a	-327.66
	46	9.4	-4.36799E-001	-1.14339E-007	0.00000E+000	-4.36900E-001	1.01139E-003	5	..........a	-327.66
	48	9.8	-4.56717E-001	-1.19753E-007	0.00000E+000	-4.56900E-001	1.00099E-003	5	..........a	-327.66
	50	10.2	-4.76720E-001	-1.24852E-007	0.00000E+000	-4.76900E-001	1.01369E-003	5	..........a	-327.66
	52	10.6	-4.96652E-001	-1.29649E-007	0.00000E+000	-4.96900E-001	1.02569E-003	5	..........a	-327.66
	54	11	-5.16766E-001	-1.34344E-007	0.00000E+000	-5.16900E-001	1.01359E-003	5	..........a	-327.66
	56	11.4	-5.36741E-001	-1.39094E-007	0.00000E+000	-5.36900E-001	1.02249E-003	5	..........a	-327.66
	58	11.8	-5.56753E-001	-1.43972E-007	0.00000E+000	-5.56900E-001	1.01839E-003	5	..........a	-327.66
	60	12.2	-5.76693E-001	-1.48879E-007	0.00000E+000	-5.76900E-001	9.92892E-004	5	..........a	-327.66
	62	12.6	-5.96793E-001	-1.54278E-007	0.00000E+000	-5.96900E-001	1.03319E-003	5	..........a	-327.66
	64	13	-5.76690E-001	-1.27589E-007	0.00000E+000	-5.76900E-001	1.01689E-003	5	..........a	-327.66
	66	13.4	-5.56787E-001	-1.11597E-007	0.00000E+000	-5.56900E-001	1.02719E-003	5	..........a	-327.66
	68	13.8	-5.36776E-001	-9.93508E-008	0.00000E+000	-5.36900E-001	1.01219E-003	5	..........a	-327.66
	70	14.2	-5.16814E-001	-8.90780E-008	0.00000E+000	-5.16900E-001	9.95592E-004	5	..........a	-327.66
	72	14.6	-4.96744E-001	-8.00827E-008	0.00000E+000	-4.96900E-001	9.89892E-004	5	..........a	-327.66
	74	15	-4.76741E-001	-7.20002E-008	0.00000E+000	-4.76900E-001	1.01729E-003	5	..........a	-327.66
	76	15.4	-4.56747E-001	-6.44887E-008	0.00000E+000	-4.56900E-001	1.01509E-003	5	..........a	-327.66
	78	15.8	-4.36824E-001	-5.74416E-008	0.00000E+000	-4.36900E-001	1.02299E-003	5	..........a	-327.66
	80	16.2	-4.16776E-001	-5.08103E-008	0.00000E+000	-4.16900E-001	1.00389E-003	5	..........a	-327.66
	82	16.6	-3.96804E-001	-4.45426E-008	0.00000E+000	-3.96900E-001	1.01799E-003	5	..........a	-327.66
	84	17	-3.76798E-001	-3.86112E-008	0.00000E+000	-3.76900E-001	1.01829E-003	5	..........a	-327.66
	86	17.4	-3.56876E-001	-3.29845E-008	0.00000E+000	-3.56900E-001	1.01849E-003	5	..........a	-327.66
	88	17.8	-3.36822E-001	-2.76428E-008	0.00000E+000	-3.36900E-001	1.01789E-003	5	..........a	-327.66
	90	18.2	-3.16889E-001	-2.26480E-008	0.00000E+000	-3.16900E-001	1.00709E-003	5	..........a	-327.66
	92	18.6	-2.96813E-001	-1.79174E-008	0.00000E+000	-2.96900E-001	1.00689E-003	5	..........a	-327.66
	94	19	-2.76818E-001	-1.34215E-008	0.00000E+000	-2.76900E-001	9.87592E-004	5	..........a	-327.66
	96	19.4	-2.56826E-001	-9.18163E-009	0.00000E+000	-2.56900E-001	1.00869E-003	5	..........a	-327.66
	98	19.8	-2.36857E-001	-5.17737E-009	0.00000E+000	-2.36900E-001	1.01209E-003	5	..........a	-327.66
	100	20.2	-2.16765E-001	-1.33076E-009	0.00000E+000	-2.16900E-001	9.98392E-004	5	..........a	-327.66
	102	20.6	-1.96881E-001	2.38613E-009	0.00000E+000	-1.96900E-001	1.01039E-003	5	..........a	-327.66
	104	21	-1.76865E-001	5.93963E-009	0.00000E+000	-1.76900E-001	1.00959E-003	5	..........a	-327.66
	106	21.4	-1.56911E-001	9.34031E-009	0.00000E+000	-1.56900E-001	1.00989E-003	5	..........a	-327.66
	108	21.8	-1.36861E-001	1.26313E-008	0.00000E+000	-1.36900E-001	1.00769E-003	5	..........a	-327.66
	110	22.2	-1.16899E-001	1.58474E-008	0.00000E+000	-1.16900E-001	1.00819E-003	5	..........a	-327.66
	112	22.6	-9.68946E-002	1.89898E-008	0.00000E+000	-9.69000E-002	1.02749E-003	5	..........a	-327.66
	114	23	-7.69098E-002	2.20572E-008	0.00000E+000	-7.69000E-002	1.01059E-003	5	..........a	-327.66
	116	23.4	-5.68864E-002	2.50735E-008	0.00000E+000	-5.69000E-002	1.00269E-003	5	..........a	-327.66
	118	23.8	-3.68774E-002	2.80362E-008	0.00000E+000	-3.69000E-002	9.95292E-004	5	..........a	-327.66
	120	24.2	-1.69065E-002	3.09806E-008	0.00000E+000	-1.69000E-002	1.01719E-003	5	..........a	-327.66
	122	24.6	3.10219E-003	3.39015E-008	0.00000E+000	3.10000E-003	1.02299E-003	5	..........a	-327.66
	124	25	2.31371E-002	3.68214E-008	0.00000E+000	2.31000E-002	1.00329E-003	5	..........a	-327.66
	126	25.4	4.31004E-002	3.97496E-008	0.00000E+000	4.31000E-002	1.01749E-003	5	..........a	-327.66
	128	25.8	6.31109E-002	4.27769E-008	0.00000E+000	6.31000E-002	9.88492E-004	5	..........a	-327.66
	130	26.2	8.31048E-002	4.58532E-008	0.00000E+000	8.31000E-002	1.01799E-003	5	..........a	-327.66
	132	26.6	1.03079E-001	4.89648E-008	0.00000E+000	1.03100E-001	1.01149E-003	5	..........a	-327.66
	134	27	1.23106E-001	5.22004E-008	0.00000E+000	1.23100E-001	1.01529E-003	5	..........a	-327.66
	136	27.4	1.43127E-001	5.54239E-008	0.00000E+000	1.43100E-001	1.00329E-003	5	..........a	-327.66
	138	27.8	1.63111E-001	5.85762E-008	0.00000E+000	1.63100E-001	1.01689E-003	5	..........a	-327.66
	140	28.2	1.83094E-001	6.16613E-008	0.00000E+000	1.83100E-001	9.99792E-004	5	..........a	-327.66
	142	28.6	2.03079E-001	6.47629E-008	0.00000E+000	2.03100E-001	1.01139E-003	5	..........a	-327.66
	144	29	2.23076E-001	6.77763E-008	0.00000E+000	2.23100E-001	1.01429E-003	5	..........a	-327.66
	146	29.4	2.43061E-001	7.07809E-008	0.00000E+000	2.43100E-001	9.88992E-004	5	..........a	-327.66
	148	29.8	2.63077E-001	7.38165E-008	0.00000E+000	2.63100E-001	9.97892E-004	5	..........a	-327.66
	150	30.2	2.83048E-001	7.69550E-008	0.00000E+000	2.83100E-001	1.01699E-003	5	..........a	-327.66
	152	30.6	3.03060E-001	8.02483E-008	0.00000E+000	3.03100E-001	1.02829E-003	5	..........a	-327.66
	154	31	3.23074E-001	8.38200E-008	0.00000E+000	3.23100E-001	1.01129E-003	5	..........a	-327.66
	156	31.4	3.43077E-001	8.77270E-008	0.00000E+000	3.43100E-001	1.00329E-003	5	..........a	-327.66
	158	31.8	3.63055E-001	9.18426E-008	0.00000E+000	3.63100E-001	1.01689E-003	5	..........a	-327.66
	160	32.2	3.83054E-001	9.61899E-008	0.00000E+000	3.83100E-001	1.00979E-003	5	..........a	-327.66
	162	32.6	4.03040E-001	1.00910E-007	0.00000E+000	4.03100E-001	1.00939E-003	5	..........a	-327.66
	164	33	4.23020E-001	1.06156E-007	0.00000E+000	4.23100E-001	1.00389E-003	5	..........a	-327.66
	166	33.4	4.43032E-001	1.11980E-007	0.00000E+000	4.43100E-001	1.01949E-003	5	..........a	-327.66
	168	33.8	4.63021E-001	1.18245E-007	0.00000E+000	4.63100E-001	1.00229E-003	5	..........a	-327.66
	170	34.2	4.83005E-001	1.24788E-007	0.00000E+000	4.83100E-001	1.00119E-003	5	..........a	-327.66
	172	34.6	5.03017E-001	1.31290E-007	0.00000E+000	5.03100E-001	9.89292E-004	5	..........a	-327.66
	174	35	5.23015E-001	1.37757E-007	0.00000E+000	5.23100E-001	1.02559E-003	5	..........a	-327.66
	176	35.4	5.43015E-001	1.44200E-007	0.00000E+000	5.43100E-001	9.83492E-004	5	..........a	-327.66
	178	35.8	5.62998E-001	1.50775E-007	0.00000E+000	5.63100E-001	1.01239E-003	5	..........a	-327.66
	180	36.2	5.82980E-001	1.57174E-007	0.00000E+000	5.83100E-001	1.01659E-003	5	..........a	-327.66
	182	36.6	6.02987E-001	1.63663E-007	0.00000E+000	6.03100E-001	1.01569E-003	5	..........a	-327.66
	184	37	6.22976E-001	1.70386E-007	0.00000E+000	6.23100E-001	1.00809E-003	5	..........a	-327.66
	186	37.4	6.42929E-001	1.77154E-007	0.00000E+000	6.43100E-001	1.00449E-003	5	..........a	-327.66
	188	37.8	6.62949E-001	1.83939E-007	0.00000E+000	6.63100E-001	1.00449E-003	5	..........a	-327.66
	190	38.2	6.82909E-001	1.91041E-007	0.00000E+000	6.83100E-001	1.02169E-003	5	..........a	-327.66
	192	38.6	7.02955E-001	1.98367E-007	0.00000E+000	7.03100E-001	1.00439E-003	5	..........a	-327.66
	194	39	7.22947E-001	2.06296E-007	0.00000E+000	7.23100E-001	9.92792E-004	5	..........a	-327.66
	196	39.4	7.42926E-001	2.15042E-007	0.00000E+000	7.43100E-001	9.89192E-004	5	..........a	-327.66
	198	39.8	7.62932E-001	2.26458E-007	0.00000E+000	7.63100E-001	1.00749E-003	5	..........a	-327.66
	200	40.2	7.82856E-001	2.38695E-007	0.00000E+000	7.83100E-001	1.01179E-003	5	..........a	-327.66
	202	40.6	8.02937E-001	2.48679E-007	0.00000E+000	8.03100E-001	9.98592E-004	5	..........a	-327.66
CURVE2	TABLE
	Pt	T	Vf	Im	Vu	Sig	Ach	IERange	Over	Temp
	#	s	V vs. Ref.	A	V	V	V	#	bits	deg C
	203	40.8	7.89961E-001	2.01578E-007	0.00000E+000	7.90000E-001	1.00339E-003	5	..........a	-327.66
	206	41.4	7.59873E-001	1.44277E-007	0.00000E+000	7.60000E-001	1.01419E-003	5	..........a	-327.66
	209	42	7.29899E-001	1.13085E-007	0.00000E+000	7.30000E-001	1.01239E-003	5	..........a	-327.66
	212	42.6	6.99898E-001	9.16639E-008	0.00000E+000	7.00000E-001	9.93392E-004	5	..........a	-327.66
	215	43.2	6.69957E-001	7.50857E-008	0.00000E+000	6.70000E-001	1.00209E-003	5	..........a	-327.66
	218	43.8	6.39883E-001	6.13704E-008	0.00000E+000	6.40000E-001	1.01669E-003	5	..........a	-327.66
	221	44.4	6.09923E-001	4.96657E-008	0.00000E+000	6.10000E-001	1.01439E-003	5	..........a	-327.66
	224	45	5.80004E-001	3.93936E-008	0.00000E+000	5.80000E-001	1.01139E-003	5	..........a	-327.66
	227	45.6	5.50026E-001	3.02078E-008	0.00000E+000	5.50000E-001	1.02909E-003	5	..........a	-327.66
	230	46.2	5.19969E-001	2.17494E-008	0.00000E+000	5.20000E-001	1.01339E-003	5	..........a	-327.66
	233	46.8	4.89932E-001	1.38603E-008	0.00000E+000	4.90000E-001	1.02309E-003	5	..........a	-327.66
	236	47.4	4.60001E-001	6.27908E-009	0.00000E+000	4.60000E-001	1.01179E-003	5	..........a	-327.66
	239	48	4.29962E-001	-1.30286E-009	0.00000E+000	4.30000E-001	1.01549E-003	5	..........a	-327.66
	242	48.6	4.00049E-001	-8.66682E-009	0.00000E+000	4.00000E-001	9.98192E-004	5	..........a	-327.66
	245	49.2	3.70050E-001	-1.59717E-008	0.00000E+000	3.70000E-001	1.02699E-003	5	..........a	-327.66
	248	49.8	3.40076E-001	-2.29587E-008	0.00000E+000	3.40000E-001	1.01279E-003	5	..........a	-327.66
	251	50.4	3.10053E-001	-2.95099E-008	0.00000E+000	3.10000E-001	1.01559E-003	5	..........a	-327.66
	254	51	2.79999E-001	-3.54642E-008	0.00000E+000	2.80000E-001	1.00189E-003	5	..........a	-327.66
	257	51.6	2.49995E-001	-4.06440E-008	0.00000E+000	2.50000E-001	1.02969E-003	5	..........a	-327.66
	260	52.2	2.20070E-001	-4.47857E-008	0.00000E+000	2.20000E-001	9.83792E-004	5	..........a	-327.66
	263	52.8	1.90110E-001	-4.80532E-008	0.00000E+000	1.90000E-001	1.01429E-003	5	..........a	-327.66
[...]
	1021	204.4	5.89974E-001	1.33703E-007	0.00000E+000	5.90000E-001	1.02949E-003	5	..........a	-327.66
	1024	205	6.19862E-001	1.41042E-007	0.00000E+000	6.20000E-001	1.01519E-003	5	..........a	-327.66
	1027	205.6	6.49883E-001	1.48886E-007	0.00000E+000	6.50000E-001	1.00439E-003	5	..........a	-327.66
	1030	206.2	6.79869E-001	1.57388E-007	0.00000E+000	6.80000E-001	9.85892E-004	5	..........a	-327.66
	1033	206.8	7.09923E-001	1.67212E-007	0.00000E+000	7.10000E-001	9.96192E-004	5	..........a	-327.66
	1036	207.4	7.39853E-001	1.79470E-007	0.00000E+000	7.40000E-001	1.00209E-003	5	..........a	-327.66
	1039	208	7.69845E-001	1.95688E-007	0.00000E+000	7.70000E-001	1.01349E-003	5	..........a	-327.66
	1042	208.6	7.99830E-001	2.16603E-007	0.00000E+000	8.00000E-001	9.96292E-004	5	..........a	-327.66
CURVE5	TABLE
	Pt	T	Vf	Im	Vu	Sig	Ach	IERange	Over	Temp
	#	s	V vs. Ref.	A	V	V	V	#	bits	deg C
	1043	208.8	7.89940E-001	1.82152E-007	0.00000E+000	7.90000E-001	1.01019E-003	5	..........a	-327.66
	1044	209	7.79858E-001	1.59716E-007	0.00000E+000	7.80000E-001	1.02549E-003	5	..........a	-327.66
	1045	209.2	7.69851E-001	1.43082E-007	0.00000E+000	7.70000E-001	1.01409E-003	5	..........a	-327.66
	1046	209.4	7.59888E-001	1.29973E-007	0.00000E+000	7.60000E-001	1.01029E-003	5	..........a	-327.66
	1047	209.6	7.49969E-001	1.19140E-007	0.00000E+000	7.50000E-001	1.00219E-003	5	..........a	-327.66
	1048	209.8	7.39901E-001	1.09906E-007	0.00000E+000	7.40000E-001	1.01229E-003	5	..........a	-327.66
	1049	210	7.29900E-001	1.01844E-007	0.00000E+000	7.30000E-001	1.02239E-003	5	..........a	-327.66
	1050	210.2	7.19879E-001	9.47510E-008	0.00000E+000	7.20000E-001	1.03599E-003	5	..........a	-327.66
	1051	210.4	7.09965E-001	8.83304E-008	0.00000E+000	7.10000E-001	1.01069E-003	5	..........a	-327.66
	1052	210.6	6.99904E-001	8.24700E-008	0.00000E+000	7.00000E-001	1.00789E-003	5	..........a	-327.66
	1053	210.8	6.89902E-001	7.70340E-008	0.00000E+000	6.90000E-001	1.00769E-003	5	..........a	-327.66
	1054	211	6.79896E-001	7.20231E-008	0.00000E+000	6.80000E-001	1.00079E-003	5	..........a	-327.66
	1055	211.2	6.69964E-001	6.73601E-008	0.00000E+000	6.70000E-001	9.95492E-004	5	..........a	-327.66
	1056	211.4	6.59923E-001	6.29434E-008	0.00000E+000	6.60000E-001	1.01639E-003	5	..........a	-327.66
	1057	211.6	6.49900E-001	5.87864E-008	0.00000E+000	6.50000E-001	1.01609E-003	5	..........a	-327.66
	1058	211.8	6.39888E-001	5.48552E-008	0.00000E+000	6.40000E-001	1.03139E-003	5	..........a	-327.66
	1059	212	6.30017E-001	5.10694E-008	0.00000E+000	6.30000E-001	9.96592E-004	5	..........a	-327.66
	1060	212.2	6.19923E-001	4.74771E-008	0.00000E+000	6.20000E-001	1.02069E-003	5	..........a	-327.66
	1061	212.4	6.09888E-001	4.40277E-008	0.00000E+000	6.10000E-001	1.00209E-003	5	..........a	-327.66
	1062	212.6	5.99949E-001	4.06939E-008	0.00000E+000	6.00000E-001	1.00829E-003	5	..........a	-327.66
	1063	212.8	5.90003E-001	3.75449E-008	0.00000E+000	5.90000E-001	1.03039E-003	5	..........a	-327.66
	1064	213	5.79989E-001	3.45190E-008	0.00000E+000	5.80000E-001	9.90292E-004	5	..........a	-327.66
	1065	213.2	5.69961E-001	3.15824E-008	0.00000E+000	5.70000E-001	1.01959E-003	5	..........a	-327.66
	1066	213.4	5.59913E-001	2.87230E-008	0.00000E+000	5.60000E-001	1.01959E-003	5	..........a	-327.66
	1067	213.6	5.50033E-001	2.58748E-008	0.00000E+000	5.50000E-001	1.01579E-003	5	..........a	-327.66
	1068	213.8	5.39973E-001	2.31277E-008	0.00000E+000	5.40000E-001	1.00499E-003	5	..........a	-327.66
	1069	214	5.29932E-001	2.04215E-008	0.00000E+000	5.30000E-001	1.00229E-003	5	..........a	-327.66
	1070	214.2	5.19949E-001	1.77169E-008	0.00000E+000	5.20000E-001	1.03069E-003	5	..........a	-327.66
	1071	214.4	5.09969E-001	1.50465E-008	0.00000E+000	5.10000E-001	1.00909E-003	5	..........a	-327.66
	1072	214.6	5.00037E-001	1.25409E-008	0.00000E+000	5.00000E-001	1.02099E-003	5	..........a	-327.66
	1073	214.8	4.89933E-001	1.00519E-008	0.00000E+000	4.90000E-001	9.97892E-004	5	..........a	-327.66
	1074	215	4.79895E-001	7.60967E-009	0.00000E+000	4.80000E-001	1.01339E-003	5	..........a	-327.66
	1075	215.2	4.70013E-001	5.11819E-009	0.00000E+000	4.70000E-001	1.00909E-003	5	..........a	-327.66
	1076	215.4	4.59971E-001	2.66071E-009	0.00000E+000	4.60000E-001	1.02009E-003	5	..........a	-327.66
	1077	215.6	4.49854E-001	1.30481E-010	0.00000E+000	4.50000E-001	1.02979E-003	5	..........a	-327.66
	1078	215.8	4.39970E-001	-2.37151E-009	0.00000E+000	4.40000E-001	1.01809E-003	5	..........a	-327.66
	1079	216	4.30007E-001	-4.83037E-009	0.00000E+000	4.30000E-001	1.02439E-003	5	..........a	-327.66
	1080	216.2	4.20007E-001	-7.27644E-009	0.00000E+000	4.20000E-001	1.00259E-003	5	..........a	-327.66
	1081	216.4	4.09991E-001	-9.68897E-009	0.00000E+000	4.10000E-001	1.02479E-003	5	..........a	-327.66
	1082	216.6	3.99968E-001	-1.21221E-008	0.00000E+000	4.00000E-001	9.96192E-004	5	..........a	-327.66
	1083	216.8	3.90058E-001	-1.44895E-008	0.00000E+000	3.90000E-001	1.01049E-003	5	..........a	-327.66
	1084	217	3.80049E-001	-1.68922E-008	0.00000E+000	3.80000E-001	1.00649E-003	5	..........a	-327.66
	1085	217.2	3.70062E-001	-1.92217E-008	0.00000E+000	3.70000E-001	1.02149E-003	5	..........a	-327.66
	1086	217.4	3.59990E-001	-2.16208E-008	0.00000E+000	3.60000E-001	1.01309E-003	5	..........a	-327.66
	1087	217.6	3.50026E-001	-2.39225E-008	0.00000E+000	3.50000E-001	1.01679E-003	5	..........a	-327.66
	1088	217.8	3.40074E-001	-2.61955E-008	0.00000E+000	3.40000E-001	1.00619E-003	5	..........a	-327.66
	1089	218	3.30008E-001	-2.83355E-008	0.00000E+000	3.30000E-001	1.00609E-003	5	..........a	-327.66
	1090	218.2	3.20049E-001	-3.04889E-008	0.00000E+000	3.20000E-001	1.00839E-003	5	..........a	-327.66
	1091	218.4	3.10017E-001	-3.25706E-008	0.00000E+000	3.10000E-001	1.01129E-003	5	..........a	-327.66
	1092	218.6	3.00071E-001	-3.45756E-008	0.00000E+000	3.00000E-001	9.87392E-004	5	..........a	-327.66
	1093	218.8	2.90040E-001	-3.65422E-008	0.00000E+000	2.90000E-001	1.01999E-003	5	..........a	-327.66
	1094	219	2.79973E-001	-3.83673E-008	0.00000E+000	2.80000E-001	1.01629E-003	5	..........a	-327.66
	1095	219.2	2.70071E-001	-4.01552E-008	0.00000E+000	2.70000E-001	9.96692E-004	5	..........a	-327.66
	1096	219.4	2.60051E-001	-4.18589E-008	0.00000E+000	2.60000E-001	1.00209E-003	5	..........a	-327.66
	1097	219.6	2.49993E-001	-4.33889E-008	0.00000E+000	2.50000E-001	1.01539E-003	5	..........a	-327.66
	1098	219.8	2.40089E-001	-4.48355E-008	0.00000E+000	2.40000E-001	1.01419E-003	5	..........a	-327.66
	1099	220	2.30027E-001	-4.62174E-008	0.00000E+000	2.30000E-001	1.01479E-003	5	..........a	-327.66
	1100	220.2	2.20077E-001	-4.74842E-008	0.00000E+000	2.20000E-001	9.85292E-004	5	..........a	-327.66
	1101	220.4	2.10014E-001	-4.86322E-008	0.00000E+000	2.10000E-001	1.00489E-003	5	..........a	-327.66
	1102	220.6	2.00059E-001	-4.97138E-008	0.00000E+000	2.00000E-001	1.02299E-003	5	..........a	-327.66
	1103	220.8	1.90115E-001	-5.06948E-008	0.00000E+000	1.90000E-001	9.96192E-004	5	..........a	-327.66
	1104	221	1.80087E-001	-5.16674E-008	0.00000E+000	1.80000E-001	1.00549E-003	5	..........a	-327.66
	1105	221.2	1.70051E-001	-5.25232E-008	0.00000E+000	1.70000E-001	1.01479E-003	5	..........a	-327.66
	1106	221.4	1.60037E-001	-5.34074E-008	0.00000E+000	1.60000E-001	1.01399E-003	5	..........a	-327.66
	1107	221.6	1.50048E-001	-5.43080E-008	0.00000E+000	1.50000E-001	1.00349E-003	5	..........a	-327.66
	1108	221.8	1.40133E-001	-5.52132E-008	0.00000E+000	1.40000E-001	1.01369E-003	5	..........a	-327.66
	1109	222	1.30066E-001	-5.61600E-008	0.00000E+000	1.30000E-001	1.01389E-003	5	..........a	-327.66
	1110	222.2	1.20050E-001	-5.71751E-008	0.00000E+000	1.20000E-001	1.01869E-003	5	..........a	-327.66
	1111	222.4	1.10091E-001	-5.81062E-008	0.00000E+000	1.10000E-001	1.01939E-003	5	..........a	-327.66
	1112	222.6	1.00135E-001	-5.91308E-008	0.00000E+000	1.00000E-001	1.01259E-003	5	..........a	-327.66
	1113	222.8	9.00964E-002	-6.01692E-008	0.00000E+000	9.00000E-002	1.01379E-003	5	..........a	-327.66
	1114	223	8.00309E-002	-6.12137E-008	0.00000E+000	8.00000E-002	1.00849E-003	5	..........a	-327.66
	1115	223.2	7.00188E-002	-6.22989E-008	0.00000E+000	7.00000E-002	1.01409E-003	5	..........a	-327.66
	1116	223.4	6.01052E-002	-6.33912E-008	0.00000E+000	6.00000E-002	9.92292E-004	5	..........a	-327.66
	1117	223.6	5.00514E-002	-6.44569E-008	0.00000E+000	5.00000E-002	1.03089E-003	5	..........a	-327.66
	1118	223.8	3.99830E-002	-6.57015E-008	0.00000E+000	4.00000E-002	1.00989E-003	5	..........a	-327.66
	1119	224	3.00743E-002	-6.68417E-008	0.00000E+000	3.00000E-002	1.01139E-003	5	..........a	-327.66
	1120	224.2	2.01366E-002	-6.79852E-008	0.00000E+000	2.00000E-002	1.01979E-003	5	..........a	-327.66