File: example_project/raw_outputs/20240321_L_GM0016_HL03_E03_CV50k.DTA
EXPLAIN
TAG	CV
TITLE	LABEL	Cyclic Voltammetry	Test &Identifier
DATE	LABEL	3/21/2024	Date
TIME	LABEL	16:59:26	Time
NOTES	NOTES	1	&Notes...

PSTAT	PSTAT	REF600P-43058	Potentiostat
VINIT	POTEN	0.00000E+000	T	Initial &E (V)
VLIMIT1	POTEN	-6.00000E-001	F	Scan Limit &1 (V)
VLIMIT2	POTEN	8.00000E-001	F	Scan Limit &2 (V)
VFINAL	POTEN	0.00000E+000	T	Final &E (V)
SCANRATE	QUANT	4.99999E+004	&Scan Rate (mV/s)
STEPSIZE	QUANT	1.00000E+001	St&ep Size (mV)
CYCLES	IQUANT	10	C&ycles (#)
IMODE	SELECTOR	1	I/E Range &Mode
IRANGE	QUANT	1.00000E-005	&Max Current (mA)
AREA	QUANT	1.00000E+000	Electrode &Area (cm^2)
ELECTRODETYPE	SELECTOR	0	Electrode Type
STRIPPING	TOGGLE	F	Used for Stripping
POLARITY	TOGGLE	F	Signal Polarity
CONDIT	TWOPARAM	F	1.50000E+001	0.00000E+000	Conditionin&g	Time(s)	E(V)
DELAY	TWOPARAM	T	1.00000E+001	0.00000E+000	Init. De&lay	Time(s)	Stab.(mV/s)
EQDELAY	QUANT	1.00000E+001	Equil. &Time (s)
IRCOMP	SELECTOR	0	IRCom&p
PFCOR	QUANT	5.00000E+001	PF Corr. (ohm)
SAMPLINGMODE	SELECTOR	1	Sampling &Mode
OCVCURVE	TABLE	39
	Pt	T	Vf	Vm	Ach	Over	Temp
	#	s	V vs. Ref.	V	V	bits	deg C
	0	0.258333	4.07269E-001	4.07269E-001	2.41156E-004	..........a	-327.66
	1	0.516667	4.07269E-001	4.07247E-001	2.47422E-004	..........a	-327.66
	2	0.775	4.07266E-001	4.07229E-001	2.44689E-004	..........a	-327.66
	3	1.03333	4.07259E-001	4.07218E-001	2.49356E-004	..........a	-327.66
	4	1.29167	4.07248E-001	4.07215E-001	2.48489E-004	..........a	-327.66
	5	1.55	4.07235E-001	4.07212E-001	2.54222E-004	..........a	-327.66
	6	1.80833	4.07225E-001	4.07214E-001	2.42289E-004	..........a	-327.66
	7	2.06667	4.07218E-001	4.07211E-001	2.43556E-004	..........a	-327.66
	8	2.325	4.07214E-001	4.07203E-001	2.44289E-004	..........a	-327.66
	9	2.58333	4.07211E-001	4.07202E-001	2.42422E-004	..........a	-327.66
	10	2.84167	4.07209E-001	4.07195E-001	2.41622E-004	..........a	-327.66
	11	3.1	4.07205E-001	4.07196E-001	2.46222E-004	..........a	-327.66
	12	3.35833	4.07201E-001	4.07186E-001	2.36222E-004	..........a	-327.66
	13	3.61667	4.07197E-001	4.07179E-001	2.40156E-004	..........a	-327.66
	14	3.875	4.07193E-001	4.07176E-001	2.50156E-004	..........a	-327.66
	15	4.13333	4.07187E-001	4.07170E-001	2.37089E-004	..........a	-327.66
	16	4.39167	4.07181E-001	4.07156E-001	2.42422E-004	..........a	-327.66
	17	4.65	4.07175E-001	4.07153E-001	2.43622E-004	..........a	-327.66
	18	4.90833	4.07168E-001	4.07149E-001	2.40956E-004	..........a	-327.66
	19	5.16667	4.07161E-001	4.07160E-001	2.38556E-004	..........a	-327.66
	20	5.425	4.07157E-001	4.07174E-001	2.34756E-004	..........a	-327.66
	21	5.68333	4.07157E-001	4.07172E-001	2.39889E-004	..........a	-327.66
	22	5.94167	4.07161E-001	4.07182E-001	2.35622E-004	..........a	-327.66
	23	6.2	4.07167E-001	4.07178E-001	2.36556E-004	..........a	-327.66
	24	6.45833	4.07173E-001	4.07176E-001	2.39756E-004	..........a	-327.66
	25	6.71667	4.07177E-001	4.07183E-001	2.42222E-004	..........a	-327.66
	26	6.975	4.07179E-001	4.07187E-001	2.38422E-004	..........a	-327.66
	27	7.23333	4.07180E-001	4.07191E-001	2.47422E-004	..........a	-327.66
	28	7.49167	4.07183E-001	4.07193E-001	2.42089E-004	..........a	-327.66
	29	7.75	4.07186E-001	4.07195E-001	2.51489E-004	..........a	-327.66
	30	8.00833	4.07190E-001	4.07199E-001	2.47289E-004	..........a	-327.66
	31	8.26667	4.07193E-001	4.07202E-001	2.49222E-004	..........a	-327.66
	32	8.525	4.07196E-001	4.07206E-001	2.48222E-004	..........a	-327.66
	33	8.78333	4.07199E-001	4.07209E-001	2.46089E-004	..........a	-327.66
	34	9.04167	4.07202E-001	4.07210E-001	2.39022E-004	..........a	-327.66
	35	9.3	4.07205E-001	4.07214E-001	2.47022E-004	..........a	-327.66
	36	9.5583	4.07208E-001	4.07216E-001	2.47356E-004	..........a	-327.66
	37	9.8167	4.07211E-001	4.07221E-001	2.46556E-004	..........a	-327.66
	38	10.075	4.07214E-001	4.07223E-001	2.40489E-004	..........a	-327.66
EOC	QUANT	0.4072137	Open Circuit (V)
PSTATMODEL	IQUANT	7	Pstat Model
PSTATSECTION	LABEL	REF600P-43058	Pstat Section
PSTATSERIALNO	LABEL	43058	Pstat Serial Number
CTRLMODE	IQUANT	1	Control Mode
ELECTROMETER	IQUANT	0	RE=0 or CS=1
IESTAB	IQUANT	2	I/E Stability
CASPEED	IQUANT	4	Control Amp Speed
CONVENTION	IQUANT	1	Current Convention
ICHRANGE	IQUANT	2	Ich Range
ICHRANGEMODE	TOGGLE	F	Ich Auto Range
ICHOFFSETENABLE	TOGGLE	F	Ich Offset Enable
ICHOFFSET	QUANT	0	Ich Offset (V)
ICHFILTER	IQUANT	1	Ich Filter
VCHRANGE	IQUANT	2	Vch Range
VCHRANGEMODE	TOGGLE	F	Vch Auto Range
VCHOFFSETENABLE	TOGGLE	F	Vch Offset Enable
VCHOFFSET	QUANT	0	Vch Offset (V)
VCHFILTER	IQUANT	1	Vch Filter
ACHRANGE	IQUANT	2	Ach Range
ACHOFFSETENABLE	TOGGLE	F	Ach Offset Enable
ACHOFFSET	QUANT	0	Ach Offset (V)
ACHFILTER	IQUANT	1	Ach Filter
IERANGELOWERLIMIT	IQUANT	1	I/E Range Lower Limit
IERANGEMODE	TOGGLE	F	I/E AutoRange
IERANGE	IQUANT	4	I/E Range
POSFEEDENABLE	TOGGLE	F	Positive Feedback IR Comp
POSFEEDRESISTANCE	QUANT	0	Positive Feedback Resistance (ohm)
ACHSELECT	IQUANT	4	Ach Select
SENSECABLEID	IQUANT	7	Sense Cable ID
PWRCABLEID	IQUANT	7	Power Cable ID
DCCALDATE	LABEL	12/18/2023	DC Calibration Date
ACCALDATE	LABEL	12/18/2023	AC Calibration Date
THERMOSELECT	IQUANT	1	Thermo Select
FRAMEWORKVERSION	LABEL	7.8.4	Framework Version
INSTRUMENTVERSION	LABEL	4.42	Instrument Version
CURVE1	TABLE
	Pt	T	Vf	Im	Vu	Sig	Ach	IERange	Over	Temp
	#	s	V vs. Ref.	A	V	V	V	#	bits	deg C
	0	0.0002	4.06970E-001	1.97884E-011	0.00000E+000	4.07200E-001	8.00223E-005	4	..........a	-327.66
	3	0.0008	3.77270E-001	-1.14217E-010	0.00000E+000	3.77200E-001	-2.19978E-004	4	..........a	-327.66
	6	0.0014	3.47070E-001	-2.80223E-010	0.00000E+000	3.47200E-001	8.00223E-005	4	..........a	-327.66
	9	0.002	3.17170E-001	-4.57230E-010	0.00000E+000	3.17200E-001	8.00223E-005	4	..........a	-327.66
	12	0.0026	2.87070E-001	-6.58238E-010	0.00000E+000	2.87200E-001	8.00223E-005	4	..........a	-327.66
	15	0.0032	2.57270E-001	-8.82246E-010	0.00000E+000	2.57200E-001	8.00223E-005	4	..........a	-327.66
	18	0.0038	2.27270E-001	-1.13826E-009	0.00000E+000	2.27200E-001	8.00223E-005	4	..........a	-327.66
	21	0.0044	1.97070E-001	-1.42627E-009	0.00000E+000	1.97200E-001	8.00223E-005	4	..........a	-327.66
	24	0.005	1.67470E-001	-1.75028E-009	0.00000E+000	1.67200E-001	8.00223E-005	4	..........a	-327.66
	27	0.0056	1.37170E-001	-2.11329E-009	0.00000E+000	1.37200E-001	8.00223E-005	4	..........a	-327.66
	30	0.0062	1.07370E-001	-2.51831E-009	0.00000E+000	1.07200E-001	8.00223E-005	4	..........a	-327.66
	33	0.0068	7.71695E-002	-2.97233E-009	0.00000E+000	7.72000E-002	8.00223E-005	4	..........a	-327.66
	36	0.0074	4.74695E-002	-3.45134E-009	0.00000E+000	4.72000E-002	8.00223E-005	4	..........a	-327.66
	39	0.008	1.73195E-002	-3.97437E-009	0.00000E+000	1.72000E-002	8.00223E-005	4	..........a	-327.66
	42	0.0086	-1.28305E-002	-4.54239E-009	0.00000E+000	-1.28000E-002	8.00223E-005	4	..........a	-327.66
	45	0.0092	-4.28305E-002	-5.13241E-009	0.00000E+000	-4.28000E-002	8.00223E-005	4	..........a	-327.66
	48	0.0098	-7.26305E-002	-5.74143E-009	0.00000E+000	-7.28000E-002	8.00223E-005	4	..........a	-327.66
	51	0.0104	-1.02730E-001	-6.38146E-009	0.00000E+000	-1.02800E-001	8.00223E-005	4	..........a	-327.66
	54	0.011	-1.32930E-001	-7.02048E-009	0.00000E+000	-1.32800E-001	8.00223E-005	4	..........a	-327.66
	57	0.0116	-1.62730E-001	-7.68851E-009	0.00000E+000	-1.62800E-001	8.00223E-005	4	..........a	-327.66
	60	0.0122	-1.92830E-001	-8.34653E-009	0.00000E+000	-1.92800E-001	8.00223E-005	4	..........a	-327.66
	63	0.0128	-2.22630E-001	-8.99756E-009	0.00000E+000	-2.22800E-001	8.00223E-005	4	..........a	-327.66
	66	0.0134	-2.52630E-001	-9.64058E-009	0.00000E+000	-2.52800E-001	8.00223E-005	4	..........a	-327.66
	69	0.014	-2.82630E-001	-1.02686E-008	0.00000E+000	-2.82800E-001	8.00223E-005	4	..........a	-327.66
	72	0.0146	-3.12630E-001	-1.08786E-008	0.00000E+000	-3.12800E-001	-4.19978E-004	4	..........a	-327.66
	75	0.0152	-3.42630E-001	-1.14707E-008	0.00000E+000	-3.42800E-001	8.00223E-005	4	..........a	-327.66
	78	0.0158	-3.72730E-001	-1.20347E-008	0.00000E+000	-3.72800E-001	8.00223E-005	4	..........a	-327.66
	81	0.0164	-4.02730E-001	-1.25897E-008	0.00000E+000	-4.02800E-001	-3.19978E-004	4	..........a	-327.66
	84	0.017	-4.32730E-001	-1.31307E-008	0.00000E+000	-4.32800E-001	8.00223E-005	4	..........a	-327.66
	87	0.0176	-4.62730E-001	-1.36587E-008	0.00000E+000	-4.62800E-001	-3.19978E-004	4	..........a	-327.66
	90	0.0182	-4.92530E-001	-1.41788E-008	0.00000E+000	-4.92800E-001	8.00223E-005	4	..........a	-327.66
	93	0.0188	-5.22730E-001	-1.47088E-008	0.00000E+000	-5.22800E-001	8.00223E-005	4	..........a	-327.66
	96	0.0194	-5.52630E-001	-1.52478E-008	0.00000E+000	-5.52800E-001	8.00223E-005	4	..........a	-327.66
	99	0.02	-5.82730E-001	-1.57978E-008	0.00000E+000	-5.82800E-001	8.00223E-005	4	..........a	-327.66
	102	0.0206	-5.92530E-001	-1.62228E-008	0.00000E+000	-5.92800E-001	8.00223E-005	4	..........a	-327.66
	105	0.0212	-5.62630E-001	-1.62088E-008	0.00000E+000	-5.62800E-001	8.00223E-005	4	..........a	-327.66
	108	0.0218	-5.32780E-001	-1.60918E-008	0.00000E+000	-5.32800E-001	8.00223E-005	4	..........a	-327.66
	111	0.0224	-5.02630E-001	-1.59118E-008	0.00000E+000	-5.02800E-001	-4.19978E-004	4	..........a	-327.66
	114	0.023	-4.72430E-001	-1.57008E-008	0.00000E+000	-4.72800E-001	8.00223E-005	4	..........a	-327.66
	117	0.0236	-4.42730E-001	-1.54678E-008	0.00000E+000	-4.42800E-001	8.00223E-005	4	..........a	-327.66
	120	0.0242	-4.12630E-001	-1.52078E-008	0.00000E+000	-4.12800E-001	8.00223E-005	4	..........a	-327.66
	123	0.0248	-3.82630E-001	-1.49498E-008	0.00000E+000	-3.82800E-001	8.00223E-005	4	..........a	-327.66
	126	0.0254	-3.52530E-001	-1.46768E-008	0.00000E+000	-3.52800E-001	8.00223E-005	4	..........a	-327.66
	129	0.026	-3.22730E-001	-1.43998E-008	0.00000E+000	-3.22800E-001	8.00223E-005	4	..........a	-327.66
	132	0.0266	-2.92730E-001	-1.41098E-008	0.00000E+000	-2.92800E-001	8.00223E-005	4	..........a	-327.66
	135	0.0272	-2.62630E-001	-1.38117E-008	0.00000E+000	-2.62800E-001	8.00223E-005	4	..........a	-327.66
	138	0.0278	-2.32730E-001	-1.35147E-008	0.00000E+000	-2.32800E-001	8.00223E-005	4	..........a	-327.66
	141	0.0284	-2.02730E-001	-1.32077E-008	0.00000E+000	-2.02800E-001	8.00223E-005	4	..........a	-327.66
	144	0.029	-1.72830E-001	-1.28977E-008	0.00000E+000	-1.72800E-001	8.00223E-005	4	..........a	-327.66
	147	0.0296	-1.42730E-001	-1.25807E-008	0.00000E+000	-1.42800E-001	8.00223E-005	4	..........a	-327.66
	150	0.0302	-1.12630E-001	-1.22527E-008	0.00000E+000	-1.12800E-001	8.00223E-005	4	..........a	-327.66
	153	0.0308	-8.27305E-002	-1.19277E-008	0.00000E+000	-8.28000E-002	8.00223E-005	4	..........a	-327.66
	156	0.0314	-5.29305E-002	-1.15987E-008	0.00000E+000	-5.28000E-002	-3.19978E-004	4	..........a	-327.66
	159	0.032	-2.26305E-002	-1.12586E-008	0.00000E+000	-2.28000E-002	8.00223E-005	4	..........a	-327.66
	162	0.0326	7.36952E-003	-1.09126E-008	0.00000E+000	7.20000E-003	8.00223E-005	4	..........a	-327.66
	165	0.0332	3.71695E-002	-1.05596E-008	0.00000E+000	3.72000E-002	8.00223E-005	4	..........a	-327.66
	168	0.0338	6.73695E-002	-1.01906E-008	0.00000E+000	6.72000E-002	8.00223E-005	4	..........a	-327.66
	171	0.0344	9.71695E-002	-9.81159E-009	0.00000E+000	9.72000E-002	8.00223E-005	4	..........a	-327.66
	174	0.035	1.27470E-001	-9.42157E-009	0.00000E+000	1.27200E-001	-4.19978E-004	4	..........a	-327.66
	177	0.0356	1.57270E-001	-9.01156E-009	0.00000E+000	1.57200E-001	8.00223E-005	4	..........a	-327.66
	180	0.0362	1.87270E-001	-8.57054E-009	0.00000E+000	1.87200E-001	8.00223E-005	4	..........a	-327.66
	183	0.0368	2.17270E-001	-8.10752E-009	0.00000E+000	2.17200E-001	8.00223E-005	4	..........a	-327.66
	186	0.0374	2.47370E-001	-7.61750E-009	0.00000E+000	2.47200E-001	8.00223E-005	4	..........a	-327.66
	189	0.038	2.77270E-001	-7.10349E-009	0.00000E+000	2.77200E-001	8.00223E-005	4	..........a	-327.66
	192	0.0386	3.07270E-001	-6.55446E-009	0.00000E+000	3.07200E-001	8.00223E-005	4	..........a	-327.66
	195	0.0392	3.37270E-001	-5.98244E-009	0.00000E+000	3.37200E-001	8.00223E-005	4	..........a	-327.66
	198	0.0398	3.67120E-001	-5.37742E-009	0.00000E+000	3.67200E-001	8.00223E-005	4	..........a	-327.66
	201	0.0404	3.97270E-001	-4.74639E-009	0.00000E+000	3.97200E-001	8.00223E-005	4	..........a	-327.66
	204	0.041	4.27170E-001	-4.09937E-009	0.00000E+000	4.27200E-001	8.00223E-005	4	..........a	-327.66
	207	0.0416	4.57170E-001	-3.42334E-009	0.00000E+000	4.57200E-001	8.00223E-005	4	..........a	-327.66
	210	0.0422	4.87370E-001	-2.73832E-009	0.00000E+000	4.87200E-001	8.00223E-005	4	..........a	-327.66
	213	0.0428	5.17069E-001	-2.03629E-009	0.00000E+000	5.17200E-001	8.00223E-005	4	..........a	-327.66
	216	0.0434	5.47170E-001	-1.31426E-009	0.00000E+000	5.47200E-001	8.00223E-005	4	..........a	-327.66
	219	0.044	5.77269E-001	-5.85235E-010	0.00000E+000	5.77200E-001	8.00223E-005	4	..........a	-327.66
	222	0.0446	6.07369E-001	1.60794E-010	0.00000E+000	6.07200E-001	8.00223E-005	4	..........a	-327.66
	225	0.0452	6.37169E-001	9.19823E-010	0.00000E+000	6.37200E-001	8.00223E-005	4	..........a	-327.66
	228	0.0458	6.67069E-001	1.69285E-009	0.00000E+000	6.67200E-001	8.00223E-005	4	..........a	-327.66
	231	0.0464	6.97169E-001	2.47988E-009	0.00000E+000	6.97200E-001	8.00223E-005	4	..........a	-327.66
	234	0.047	7.27169E-001	3.28091E-009	0.00000E+000	7.27200E-001	8.00223E-005	4	..........a	-327.66
	237	0.0476	7.56969E-001	4.11095E-009	0.00000E+000	7.57200E-001	8.00223E-005	4	..........a	-327.66
	240	0.0482	7.87169E-001	4.95998E-009	0.00000E+000	7.87200E-001	8.00223E-005	4	..........a	-327.66
	241	0.0484	7.97069E-001	5.24999E-009	0.00000E+000	7.97200E-001	8.00223E-005	4	..........a	-327.66
CURVE2	TABLE
	Pt	T	Vf	Im	Vu	Sig	Ach	IERange	Over	Temp
	#	s	V vs. Ref.	A	V	V	V	#	bits	deg C
	242	0.0486	7.89869E-001	5.41200E-009	0.00000E+000	7.90000E-001	8.00223E-005	4	..........a	-327.66
	245	0.0492	7.59820E-001	5.62000E-009	0.00000E+000	7.60000E-001	8.00223E-005	4	..........a	-327.66
	248	0.0498	7.29869E-001	5.62200E-009	0.00000E+000	7.30000E-001	8.00223E-005	4	..........a	-327.66
	251	0.0504	6.99869E-001	5.53600E-009	0.00000E+000	7.00000E-001	8.00223E-005	4	..........a	-327.66
	254	0.051	6.69969E-001	5.38399E-009	0.00000E+000	6.70000E-001	8.00223E-005	4	..........a	-327.66
	257	0.0516	6.39870E-001	5.18899E-009	0.00000E+000	6.40000E-001	8.00223E-005	4	..........a	-327.66
	260	0.0522	6.09869E-001	4.96498E-009	0.00000E+000	6.10000E-001	8.00223E-005	4	..........a	-327.66
	263	0.0528	5.79820E-001	4.71397E-009	0.00000E+000	5.80000E-001	8.00223E-005	4	..........a	-327.66
	266	0.0534	5.49969E-001	4.43996E-009	0.00000E+000	5.50000E-001	8.00223E-005	4	..........a	-327.66
	269	0.054	5.20069E-001	4.14195E-009	0.00000E+000	5.20000E-001	8.00223E-005	4	..........a	-327.66
	272	0.0546	4.89870E-001	3.82393E-009	0.00000E+000	4.90000E-001	8.00223E-005	4	..........a	-327.66
	275	0.0552	4.59970E-001	3.48492E-009	0.00000E+000	4.60000E-001	8.00223E-005	4	..........a	-327.66
	278	0.0558	4.29870E-001	3.11391E-009	0.00000E+000	4.30000E-001	8.00223E-005	4	..........a	-327.66
	281	0.0564	3.99870E-001	2.71989E-009	0.00000E+000	4.00000E-001	8.00223E-005	4	..........a	-327.66
	284	0.057	3.69970E-001	2.28988E-009	0.00000E+000	3.70000E-001	8.00223E-005	4	..........a	-327.66
	287	0.0576	3.39970E-001	1.82586E-009	0.00000E+000	3.40000E-001	8.00223E-005	4	..........a	-327.66
	290	0.0582	3.09970E-001	1.32784E-009	0.00000E+000	3.10000E-001	8.00223E-005	4	..........a	-327.66
	293	0.0588	2.79970E-001	7.93818E-010	0.00000E+000	2.80000E-001	8.00223E-005	4	..........a	-327.66
	296	0.0594	2.50070E-001	2.12796E-010	0.00000E+000	2.50000E-001	8.00223E-005	4	..........a	-327.66
	299	0.06	2.19670E-001	-3.86227E-010	0.00000E+000	2.20000E-001	8.00223E-005	4	..........a	-327.66
	302	0.0606	1.90070E-001	-1.02225E-009	0.00000E+000	1.90000E-001	8.00223E-005	4	..........a	-327.66
	305	0.0612	1.59970E-001	-1.65928E-009	0.00000E+000	1.60000E-001	8.00223E-005	4	..........a	-327.66
	308	0.0618	1.29820E-001	-2.30530E-009	0.00000E+000	1.30000E-001	8.00223E-005	4	..........a	-327.66
	311	0.0624	1.00170E-001	-2.92732E-009	0.00000E+000	1.00000E-001	8.00223E-005	4	..........a	-327.66
	314	0.063	7.00695E-002	-3.55135E-009	0.00000E+000	7.00000E-002	8.00223E-005	4	..........a	-327.66
	317	0.0636	4.00695E-002	-4.14337E-009	0.00000E+000	4.00000E-002	8.00223E-005	4	..........a	-327.66
	320	0.0642	1.00695E-002	-4.70739E-009	0.00000E+000	1.00000E-002	8.00223E-005	4	..........a	-327.66
	323	0.0648	-1.99305E-002	-5.24041E-009	0.00000E+000	-2.00000E-002	-3.19978E-004	4	..........a	-327.66
	326	0.0654	-4.99305E-002	-5.75143E-009	0.00000E+000	-5.00000E-002	8.00223E-005	4	..........a	-327.66
	329	0.066	-7.98305E-002	-6.24145E-009	0.00000E+000	-8.00000E-002	8.00223E-005	4	..........a	-327.66
	332	0.0666	-1.09930E-001	-6.70447E-009	0.00000E+000	-1.10000E-001	-3.19978E-004	4	..........a	-327.66
	335	0.0672	-1.39780E-001	-7.14849E-009	0.00000E+000	-1.40000E-001	8.00223E-005	4	..........a	-327.66
	338	0.0678	-1.69930E-001	-7.58050E-009	0.00000E+000	-1.70000E-001	8.00223E-005	4	..........a	-327.66
	341	0.0684	-1.99930E-001	-7.99152E-009	0.00000E+000	-2.00000E-001	8.00223E-005	4	..........a	-327.66
	344	0.069	-2.29830E-001	-8.39754E-009	0.00000E+000	-2.30000E-001	8.00223E-005	4	..........a	-327.66
	347	0.0696	-2.59830E-001	-8.78655E-009	0.00000E+000	-2.60000E-001	8.00223E-005	4	..........a	-327.66
	350	0.0702	-2.89930E-001	-9.16656E-009	0.00000E+000	-2.90000E-001	8.00223E-005	4	..........a	-327.66
[...]
	2626	0.5254	-5.49931E-001	-9.17256E-009	0.00000E+000	-5.50000E-001	8.00223E-005	4	..........a	-327.66
	2629	0.526	-5.19830E-001	-9.02856E-009	0.00000E+000	-5.20000E-001	8.00223E-005	4	..........a	-327.66
	2632	0.5266	-4.89830E-001	-8.85155E-009	0.00000E+000	-4.90000E-001	8.00223E-005	4	..........a	-327.66
	2635	0.5272	-4.59930E-001	-8.65054E-009	0.00000E+000	-4.60000E-001	8.00223E-005	4	..........a	-327.66
	2638	0.5278	-4.29930E-001	-8.44054E-009	0.00000E+000	-4.30000E-001	8.00223E-005	4	..........a	-327.66
	2641	0.5284	-3.99930E-001	-8.21953E-009	0.00000E+000	-4.00000E-001	8.00223E-005	4	..........a	-327.66
	2644	0.529	-3.70030E-001	-7.98652E-009	0.00000E+000	-3.70000E-001	8.00223E-005	4	..........a	-327.66
	2647	0.5296	-3.39730E-001	-7.74851E-009	0.00000E+000	-3.40000E-001	8.00223E-005	4	..........a	-327.66
	2650	0.5302	-3.09930E-001	-7.50250E-009	0.00000E+000	-3.10000E-001	8.00223E-005	4	..........a	-327.66
	2653	0.5308	-2.79930E-001	-7.25449E-009	0.00000E+000	-2.80000E-001	8.00223E-005	4	..........a	-327.66
	2656	0.5314	-2.49930E-001	-6.99748E-009	0.00000E+000	-2.50000E-001	-3.19978E-004	4	..........a	-327.66
	2659	0.532	-2.19930E-001	-6.74247E-009	0.00000E+000	-2.20000E-001	8.00223E-005	4	..........a	-327.66
	2662	0.5326	-1.90130E-001	-6.47646E-009	0.00000E+000	-1.90000E-001	8.00223E-005	4	..........a	-327.66
	2665	0.5332	-1.59930E-001	-6.21545E-009	0.00000E+000	-1.60000E-001	8.00223E-005	4	..........a	-327.66
	2668	0.5338	-1.30030E-001	-5.94344E-009	0.00000E+000	-1.30000E-001	8.00223E-005	4	..........a	-327.66
	2671	0.5344	-9.99305E-002	-5.67043E-009	0.00000E+000	-1.00000E-001	8.00223E-005	4	..........a	-327.66
	2674	0.535	-6.99305E-002	-5.38642E-009	0.00000E+000	-7.00000E-002	8.00223E-005	4	..........a	-327.66
	2677	0.5356	-3.99305E-002	-5.11041E-009	0.00000E+000	-4.00000E-002	8.00223E-005	4	..........a	-327.66
	2680	0.5362	-9.93048E-003	-4.81440E-009	0.00000E+000	-1.00000E-002	8.00223E-005	4	..........a	-327.66
	2683	0.5368	2.00695E-002	-4.51639E-009	0.00000E+000	2.00000E-002	8.00223E-005	4	..........a	-327.66
	2686	0.5374	4.99695E-002	-4.20837E-009	0.00000E+000	5.00000E-002	8.00223E-005	4	..........a	-327.66
	2689	0.538	8.01695E-002	-3.88936E-009	0.00000E+000	8.00000E-002	8.00223E-005	4	..........a	-327.66
	2692	0.5386	1.10070E-001	-3.55235E-009	0.00000E+000	1.10000E-001	8.00223E-005	4	..........a	-327.66
	2695	0.5392	1.40170E-001	-3.20034E-009	0.00000E+000	1.40000E-001	8.00223E-005	4	..........a	-327.66
	2698	0.5398	1.69970E-001	-2.82632E-009	0.00000E+000	1.70000E-001	8.00223E-005	4	..........a	-327.66
	2701	0.5404	2.00070E-001	-2.42431E-009	0.00000E+000	2.00000E-001	8.00223E-005	4	..........a	-327.66
	2704	0.541	2.29970E-001	-1.99529E-009	0.00000E+000	2.30000E-001	8.00223E-005	4	..........a	-327.66
	2707	0.5416	2.60070E-001	-1.53227E-009	0.00000E+000	2.60000E-001	8.00223E-005	4	..........a	-327.66
	2710	0.5422	2.89970E-001	-1.03625E-009	0.00000E+000	2.90000E-001	8.00223E-005	4	..........a	-327.66
	2713	0.5428	3.19870E-001	-5.08232E-010	0.00000E+000	3.20000E-001	-3.19978E-004	4	..........a	-327.66
	2716	0.5434	3.49970E-001	4.97895E-011	0.00000E+000	3.50000E-001	-2.19978E-004	4	..........a	-327.66
	2719	0.544	3.80070E-001	6.38812E-010	0.00000E+000	3.80000E-001	8.00223E-005	4	..........a	-327.66
	2722	0.5446	4.09870E-001	1.25184E-009	0.00000E+000	4.10000E-001	8.00223E-005	4	..........a	-327.66
	2725	0.5452	4.39970E-001	1.89086E-009	0.00000E+000	4.40000E-001	8.00223E-005	4	..........a	-327.66
	2728	0.5458	4.69920E-001	2.54389E-009	0.00000E+000	4.70000E-001	-3.19978E-004	4	..........a	-327.66
	2731	0.5464	5.00219E-001	3.22091E-009	0.00000E+000	5.00000E-001	8.00223E-005	4	..........a	-327.66
	2734	0.547	5.29869E-001	3.91194E-009	0.00000E+000	5.30000E-001	8.00223E-005	4	..........a	-327.66
	2737	0.5476	5.60070E-001	4.60996E-009	0.00000E+000	5.60000E-001	8.00223E-005	4	..........a	-327.66
	2740	0.5482	5.89969E-001	5.32899E-009	0.00000E+000	5.90000E-001	8.00223E-005	4	..........a	-327.66
	2743	0.5488	6.19969E-001	6.05002E-009	0.00000E+000	6.20000E-001	8.00223E-005	4	..........a	-327.66
	2746	0.5494	6.49769E-001	6.78505E-009	0.00000E+000	6.50000E-001	8.00223E-005	4	..........a	-327.66
	2749	0.55	6.79869E-001	7.52308E-009	0.00000E+000	6.80000E-001	8.00223E-005	4	..........a	-327.66
	2752	0.5506	7.09870E-001	8.28311E-009	0.00000E+000	7.10000E-001	8.00223E-005	4	..........a	-327.66
	2755	0.5512	7.39969E-001	9.05714E-009	0.00000E+000	7.40000E-001	8.00223E-005	4	..........a	-327.66
	2758	0.5518	7.70069E-001	9.85017E-009	0.00000E+000	7.70000E-001	8.00223E-005	4	..........a	-327.66
	2761	0.5524	7.99819E-001	1.06762E-008	0.00000E+000	8.00000E-001	8.00223E-005	4	..........a	-327.66
CURVE11	TABLE
	Pt	T	Vf	Im	Vu	Sig	Ach	IERange	Over	Temp
	#	s	V vs. Ref.	A	V	V	V	#	bits	deg C
	2762	0.5526	7.90069E-001	1.08022E-008	0.00000E+000	7.90000E-001	8.00223E-005	4	..........a	-327.66
	2763	0.5528	7.79769E-001	1.08822E-008	0.00000E+000	7.80000E-001	8.00223E-005	4	..........a	-327.66
	2764	0.553	7.69669E-001	1.09262E-008	0.00000E+000	7.70000E-001	8.00223E-005	4	..........a	-327.66
	2765	0.5532	7.59869E-001	1.09472E-008	0.00000E+000	7.60000E-001	8.00223E-005	4	..........a	-327.66
	2766	0.5534	7.49969E-001	1.09512E-008	0.00000E+000	7.50000E-001	8.00223E-005	4	..........a	-327.66
	2767	0.5536	7.39969E-001	1.09372E-008	0.00000E+000	7.40000E-001	8.00223E-005	4	..........a	-327.66
	2768	0.5538	7.29869E-001	1.09122E-008	0.00000E+000	7.30000E-001	8.00223E-005	4	..........a	-327.66
	2769	0.554	7.19969E-001	1.08692E-008	0.00000E+000	7.20000E-001	8.00223E-005	4	..........a	-327.66
	2770	0.5542	7.10019E-001	1.08192E-008	0.00000E+000	7.10000E-001	8.00223E-005	4	..........a	-327.66
	2771	0.5544	6.99869E-001	1.07662E-008	0.00000E+000	7.00000E-001	8.00223E-005	4	..........a	-327.66
	2772	0.5546	6.89869E-001	1.07042E-008	0.00000E+000	6.90000E-001	-2.19978E-004	4	..........a	-327.66
	2773	0.5548	6.80070E-001	1.06382E-008	0.00000E+000	6.80000E-001	8.00223E-005	4	..........a	-327.66
	2774	0.555	6.69869E-001	1.05692E-008	0.00000E+000	6.70000E-001	8.00223E-005	4	..........a	-327.66
	2775	0.5552	6.59819E-001	1.04912E-008	0.00000E+000	6.60000E-001	8.00223E-005	4	..........a	-327.66
	2776	0.5554	6.49969E-001	1.04062E-008	0.00000E+000	6.50000E-001	8.00223E-005	4	..........a	-327.66
	2777	0.5556	6.39669E-001	1.03222E-008	0.00000E+000	6.40000E-001	8.00223E-005	4	..........a	-327.66
	2778	0.5558	6.29969E-001	1.02362E-008	0.00000E+000	6.30000E-001	8.00223E-005	4	..........a	-327.66
	2779	0.556	6.19769E-001	1.01422E-008	0.00000E+000	6.20000E-001	-3.19978E-004	4	..........a	-327.66
	2780	0.5562	6.09969E-001	1.00472E-008	0.00000E+000	6.10000E-001	-4.19978E-004	4	..........a	-327.66
	2781	0.5564	5.99970E-001	9.94817E-009	0.00000E+000	6.00000E-001	8.00223E-005	4	..........a	-327.66
	2782	0.5566	5.89969E-001	9.84917E-009	0.00000E+000	5.90000E-001	8.00223E-005	4	..........a	-327.66
	2783	0.5568	5.79870E-001	9.74916E-009	0.00000E+000	5.80000E-001	8.00223E-005	4	..........a	-327.66
	2784	0.557	5.69869E-001	9.64116E-009	0.00000E+000	5.70000E-001	8.00223E-005	4	..........a	-327.66
	2785	0.5572	5.59869E-001	9.53215E-009	0.00000E+000	5.60000E-001	8.00223E-005	4	..........a	-327.66
	2786	0.5574	5.50070E-001	9.41815E-009	0.00000E+000	5.50000E-001	8.00223E-005	4	..........a	-327.66
	2787	0.5576	5.40069E-001	9.30415E-009	0.00000E+000	5.40000E-001	8.00223E-005	4	..........a	-327.66
	2788	0.5578	5.29869E-001	9.18714E-009	0.00000E+000	5.30000E-001	8.00223E-005	4	..........a	-327.66
	2789	0.558	5.19969E-001	9.06514E-009	0.00000E+000	5.20000E-001	8.00223E-005	4	..........a	-327.66
	2790	0.5582	5.09820E-001	8.94213E-009	0.00000E+000	5.10000E-001	8.00223E-005	4	..........a	-327.66
	2791	0.5584	5.00170E-001	8.81413E-009	0.00000E+000	5.00000E-001	8.00223E-005	4	..........a	-327.66
	2792	0.5586	4.89870E-001	8.69212E-009	0.00000E+000	4.90000E-001	8.00223E-005	4	..........a	-327.66
	2793	0.5588	4.79870E-001	8.56112E-009	0.00000E+000	4.80000E-001	8.00223E-005	4	..........a	-327.66
	2794	0.559	4.69870E-001	8.42611E-009	0.00000E+000	4.70000E-001	8.00223E-005	4	..........a	-327.66
	2795	0.5592	4.60070E-001	8.28911E-009	0.00000E+000	4.60000E-001	8.00223E-005	4	..........a	-327.66
	2796	0.5594	4.49970E-001	8.14510E-009	0.00000E+000	4.50000E-001	8.00223E-005	4	..........a	-327.66
	2797	0.5596	4.39870E-001	8.00410E-009	0.00000E+000	4.40000E-001	-3.19978E-004	4	..........a	-327.66
	2798	0.5598	4.29970E-001	7.85409E-009	0.00000E+000	4.30000E-001	8.00223E-005	4	..........a	-327.66
	2799	0.56	4.20070E-001	7.70208E-009	0.00000E+000	4.20000E-001	8.00223E-005	4	..........a	-327.66
	2800	0.5602	4.09770E-001	7.55008E-009	0.00000E+000	4.10000E-001	8.00223E-005	4	..........a	-327.66