File: example_project/raw_outputs/20240321_ZV_GM0016_HL03_E12_CV50k.DTA
EXPLAIN
TAG	CV
TITLE	LABEL	Cyclic Voltammetry	Test &Identifier
DATE	LABEL	3/21/2024	Date
TIME	LABEL	19:15:17	Time
NOTES	NOTES	1	&Notes...

PSTAT	PSTAT	REF600P-43058	Potentiostat
VINIT	POTEN	0.00000E+000	T	Initial &E (V)
VLIMIT1	POTEN	-6.00000E-001	F	Scan Limit &1 (V)
VLIMIT2	POTEN	8.00000E-001	F	Scan Limit &2 (V)
VFINAL	POTEN	0.00000E+000	T	Final &E (V)
SCANRATE	QUANT	4.99999E+004	&Scan Rate (mV/s)
STEPSIZE	QUANT	1.00000E+001	St&ep Size (mV)
CYCLES	IQUANT	10	C&ycles (#)
IMODE	SELECTOR	1	I/E Range &Mode
IRANGE	QUANT	1.00000E-005	&Max Current (mA)
AREA	QUANT	1.00000E+000	Electrode &Area (cm^2)
ELECTRODETYPE	SELECTOR	0	Electrode Type
STRIPPING	TOGGLE	F	Used for Stripping
POLARITY	TOGGLE	F	Signal Polarity
CONDIT	TWOPARAM	F	1.50000E+001	0.00000E+000	Conditionin&g	Time(s)	E(V)
DELAY	TWOPARAM	T	1.00000E+001	0.00000E+000	Init. De&lay	Time(s)	Stab.(mV/s)
EQDELAY	QUANT	1.00000E+001	Equil. &Time (s)
IRCOMP	SELECTOR	0	IRCom&p
PFCOR	QUANT	5.00000E+001	PF Corr. (ohm)
SAMPLINGMODE	SELECTOR	1	Sampling &Mode
OCVCURVE	TABLE	39
	Pt	T	Vf	Vm	Ach	Over	Temp
	#	s	V vs. Ref.	V	V	bits	deg C
	0	0.258333	3.23997E-001	3.23997E-001	2.48089E-004	..........a	-327.66
	1	0.516667	3.23997E-001	3.24014E-001	2.41089E-004	..........a	-327.66
	2	0.775	3.24000E-001	3.24077E-001	2.52356E-004	..........a	-327.66
	3	1.03333	3.24013E-001	3.24202E-001	2.45556E-004	..........a	-327.66
	4	1.29167	3.24046E-001	3.24299E-001	2.37022E-004	..........a	-327.66
	5	1.55	3.24106E-001	3.24383E-001	2.45556E-004	..........a	-327.66
	6	1.80833	3.24189E-001	3.24517E-001	2.26422E-004	..........a	-327.66
	7	2.06667	3.24286E-001	3.24644E-001	2.41489E-004	..........a	-327.66
	8	2.325	3.24394E-001	3.24750E-001	2.36489E-004	..........a	-327.66
	9	2.58333	3.24508E-001	3.24857E-001	2.37822E-004	..........a	-327.66
	10	2.84167	3.24624E-001	3.24951E-001	2.45489E-004	..........a	-327.66
	11	3.1	3.24736E-001	3.25044E-001	2.47156E-004	..........a	-327.66
	12	3.35833	3.24842E-001	3.25140E-001	2.34022E-004	..........a	-327.66
	13	3.61667	3.24944E-001	3.25337E-001	2.42622E-004	..........a	-327.66
	14	3.875	3.25053E-001	3.25547E-001	2.43289E-004	..........a	-327.66
	15	4.13333	3.25181E-001	3.25617E-001	2.38422E-004	..........a	-327.66
	16	4.39167	3.25325E-001	3.25635E-001	2.39489E-004	..........a	-327.66
	17	4.65	3.25461E-001	3.25686E-001	2.40222E-004	..........a	-327.66
	18	4.90833	3.25566E-001	3.25780E-001	2.42556E-004	..........a	-327.66
	19	5.16667	3.25643E-001	3.25889E-001	2.33156E-004	..........a	-327.66
	20	5.425	3.25711E-001	3.25954E-001	2.36422E-004	..........a	-327.66
	21	5.68333	3.25787E-001	3.26068E-001	2.41356E-004	..........a	-327.66
	22	5.94167	3.25872E-001	3.26212E-001	2.42689E-004	..........a	-327.66
	23	6.2	3.25968E-001	3.26329E-001	2.49156E-004	..........a	-327.66
	24	6.45833	3.26076E-001	3.26447E-001	2.58022E-004	..........a	-327.66
	25	6.71667	3.26194E-001	3.26561E-001	2.32156E-004	..........a	-327.66
	26	6.975	3.26315E-001	3.26666E-001	2.39956E-004	..........a	-327.66
	27	7.23333	3.26434E-001	3.26808E-001	2.37889E-004	..........a	-327.66
	28	7.49167	3.26554E-001	3.27039E-001	2.28689E-004	..........a	-327.66
	29	7.75	3.26685E-001	3.27178E-001	2.42689E-004	..........a	-327.66
	30	8.00833	3.26832E-001	3.27219E-001	2.45089E-004	..........a	-327.66
	31	8.26667	3.26980E-001	3.27244E-001	2.49422E-004	..........a	-327.66
	32	8.525	3.27104E-001	3.27314E-001	2.44422E-004	..........a	-327.66
	33	8.78333	3.27194E-001	3.27418E-001	2.46556E-004	..........a	-327.66
	34	9.04167	3.27264E-001	3.27494E-001	2.32556E-004	..........a	-327.66
	35	9.3	3.27333E-001	3.27608E-001	2.37756E-004	..........a	-327.66
	36	9.5583	3.27412E-001	3.27736E-001	2.35956E-004	..........a	-327.66
	37	9.8167	3.27504E-001	3.27875E-001	2.40289E-004	..........a	-327.66
	38	10.075	3.27612E-001	3.27980E-001	2.43889E-004	..........a	-327.66
EOC	QUANT	0.3276116	Open Circuit (V)
PSTATMODEL	IQUANT	7	Pstat Model
PSTATSECTION	LABEL	REF600P-43058	Pstat Section
PSTATSERIALNO	LABEL	43058	Pstat Serial Number
CTRLMODE	IQUANT	1	Control Mode
ELECTROMETER	IQUANT	0	RE=0 or CS=1
IESTAB	IQUANT	2	I/E Stability
CASPEED	IQUANT	4	Control Amp Speed
CONVENTION	IQUANT	1	Current Convention
ICHRANGE	IQUANT	2	Ich Range
ICHRANGEMODE	TOGGLE	F	Ich Auto Range
ICHOFFSETENABLE	TOGGLE	F	Ich Offset Enable
ICHOFFSET	QUANT	0	Ich Offset (V)
ICHFILTER	IQUANT	1	Ich Filter
VCHRANGE	IQUANT	2	Vch Range
VCHRANGEMODE	TOGGLE	F	Vch Auto Range
VCHOFFSETENABLE	TOGGLE	F	Vch Offset Enable
VCHOFFSET	QUANT	0	Vch Offset (V)
VCHFILTER	IQUANT	1	Vch Filter
ACHRANGE	IQUANT	2	Ach Range
ACHOFFSETENABLE	TOGGLE	F	Ach Offset Enable
ACHOFFSET	QUANT	0	Ach Offset (V)
ACHFILTER	IQUANT	1	Ach Filter
IERANGELOWERLIMIT	IQUANT	1	I/E Range Lower Limit
IERANGEMODE	TOGGLE	F	I/E AutoRange
IERANGE	IQUANT	4	I/E Range
POSFEEDENABLE	TOGGLE	F	Positive Feedback IR Comp
POSFEEDRESISTANCE	QUANT	0	Positive Feedback Resistance (ohm)
ACHSELECT	IQUANT	4	Ach Select
SENSECABLEID	IQUANT	7	Sense Cable ID
PWRCABLEID	IQUANT	7	Power Cable ID
DCCALDATE	LABEL	12/18/2023	DC Calibration Date
ACCALDATE	LABEL	12/18/2023	AC Calibration Date
THERMOSELECT	IQUANT	1	Thermo Select
FRAMEWORKVERSION	LABEL	7.8.4	Framework Version
INSTRUMENTVERSION	LABEL	4.42	Instrument Version
CURVE1	TABLE
	Pt	T	Vf	Im	Vu	Sig	Ach	IERange	Over	Temp
	#	s	V vs. Ref.	A	V	V	V	#	bits	deg C
	0	0.0002	3.27570E-001	3.87891E-011	0.00000E+000	3.27600E-001	8.00223E-005	4	..........a	-327.66
	3	0.0008	2.97670E-001	-8.82158E-011	0.00000E+000	2.97600E-001	8.00223E-005	4	..........a	-327.66
	6	0.0014	2.67670E-001	-2.62222E-010	0.00000E+000	2.67600E-001	8.00223E-005	4	..........a	-327.66
	9	0.002	2.37670E-001	-4.58230E-010	0.00000E+000	2.37600E-001	8.00223E-005	4	..........a	-327.66
	12	0.0026	2.07570E-001	-6.80238E-010	0.00000E+000	2.07600E-001	8.00223E-005	4	..........a	-327.66
	15	0.0032	1.77570E-001	-9.35248E-010	0.00000E+000	1.77600E-001	8.00223E-005	4	..........a	-327.66
	18	0.0038	1.47370E-001	-1.20326E-009	0.00000E+000	1.47600E-001	8.00223E-005	4	..........a	-327.66
	21	0.0044	1.17870E-001	-1.50227E-009	0.00000E+000	1.17600E-001	8.00223E-005	4	..........a	-327.66
	24	0.005	8.75695E-002	-1.82828E-009	0.00000E+000	8.76000E-002	8.00223E-005	4	..........a	-327.66
	27	0.0056	5.77695E-002	-2.17530E-009	0.00000E+000	5.76000E-002	8.00223E-005	4	..........a	-327.66
	30	0.0062	2.76695E-002	-2.54431E-009	0.00000E+000	2.76000E-002	8.00223E-005	4	..........a	-327.66
	33	0.0068	-2.33048E-003	-2.93933E-009	0.00000E+000	-2.40000E-003	8.00223E-005	4	..........a	-327.66
	36	0.0074	-3.23305E-002	-3.36634E-009	0.00000E+000	-3.24000E-002	8.00223E-005	4	..........a	-327.66
	39	0.008	-6.25305E-002	-3.80936E-009	0.00000E+000	-6.24000E-002	8.00223E-005	4	..........a	-327.66
	42	0.0086	-9.21305E-002	-4.28538E-009	0.00000E+000	-9.24000E-002	8.00223E-005	4	..........a	-327.66
	45	0.0092	-1.22330E-001	-4.78140E-009	0.00000E+000	-1.22400E-001	8.00223E-005	4	..........a	-327.66
	48	0.0098	-1.52330E-001	-5.29442E-009	0.00000E+000	-1.52400E-001	8.00223E-005	4	..........a	-327.66
	51	0.0104	-1.82430E-001	-5.83044E-009	0.00000E+000	-1.82400E-001	-3.19978E-004	4	..........a	-327.66
	54	0.011	-2.12430E-001	-6.38646E-009	0.00000E+000	-2.12400E-001	8.00223E-005	4	..........a	-327.66
	57	0.0116	-2.42430E-001	-6.96048E-009	0.00000E+000	-2.42400E-001	8.00223E-005	4	..........a	-327.66
	60	0.0122	-2.72330E-001	-7.54750E-009	0.00000E+000	-2.72400E-001	8.00223E-005	4	..........a	-327.66
	63	0.0128	-3.02430E-001	-8.15353E-009	0.00000E+000	-3.02400E-001	8.00223E-005	4	..........a	-327.66
	66	0.0134	-3.32330E-001	-8.77855E-009	0.00000E+000	-3.32400E-001	8.00223E-005	4	..........a	-327.66
	69	0.014	-3.62130E-001	-9.40857E-009	0.00000E+000	-3.62400E-001	8.00223E-005	4	..........a	-327.66
	72	0.0146	-3.92330E-001	-1.00566E-008	0.00000E+000	-3.92400E-001	8.00223E-005	4	..........a	-327.66
	75	0.0152	-4.22030E-001	-1.07146E-008	0.00000E+000	-4.22400E-001	8.00223E-005	4	..........a	-327.66
	78	0.0158	-4.52230E-001	-1.13806E-008	0.00000E+000	-4.52400E-001	8.00223E-005	4	..........a	-327.66
	81	0.0164	-4.82130E-001	-1.20687E-008	0.00000E+000	-4.82400E-001	8.00223E-005	4	..........a	-327.66
	84	0.017	-5.12330E-001	-1.27637E-008	0.00000E+000	-5.12400E-001	8.00223E-005	4	..........a	-327.66
	87	0.0176	-5.42130E-001	-1.34847E-008	0.00000E+000	-5.42400E-001	8.00223E-005	4	..........a	-327.66
	90	0.0182	-5.72230E-001	-1.42288E-008	0.00000E+000	-5.72400E-001	8.00223E-005	4	..........a	-327.66
	93	0.0188	-6.02331E-001	-1.49838E-008	0.00000E+000	-6.02400E-001	8.00223E-005	4	..........a	-327.66
	96	0.0194	-5.72330E-001	-1.53548E-008	0.00000E+000	-5.72400E-001	8.00223E-005	4	..........a	-327.66
	99	0.02	-5.42331E-001	-1.55498E-008	0.00000E+000	-5.42400E-001	8.00223E-005	4	..........a	-327.66
	102	0.0206	-5.12330E-001	-1.56508E-008	0.00000E+000	-5.12400E-001	8.00223E-005	4	..........a	-327.66
	105	0.0212	-4.82230E-001	-1.56638E-008	0.00000E+000	-4.82400E-001	8.00223E-005	4	..........a	-327.66
	108	0.0218	-4.52230E-001	-1.56318E-008	0.00000E+000	-4.52400E-001	8.00223E-005	4	..........a	-327.66
	111	0.0224	-4.22330E-001	-1.55458E-008	0.00000E+000	-4.22400E-001	8.00223E-005	4	..........a	-327.66
	114	0.023	-3.92330E-001	-1.54218E-008	0.00000E+000	-3.92400E-001	8.00223E-005	4	..........a	-327.66
	117	0.0236	-3.62130E-001	-1.52548E-008	0.00000E+000	-3.62400E-001	8.00223E-005	4	..........a	-327.66
	120	0.0242	-3.32230E-001	-1.50478E-008	0.00000E+000	-3.32400E-001	8.00223E-005	4	..........a	-327.66
	123	0.0248	-3.02230E-001	-1.48228E-008	0.00000E+000	-3.02400E-001	8.00223E-005	4	..........a	-327.66
	126	0.0254	-2.72330E-001	-1.45648E-008	0.00000E+000	-2.72400E-001	8.00223E-005	4	..........a	-327.66
	129	0.026	-2.42130E-001	-1.42768E-008	0.00000E+000	-2.42400E-001	8.00223E-005	4	..........a	-327.66
	132	0.0266	-2.12330E-001	-1.39707E-008	0.00000E+000	-2.12400E-001	8.00223E-005	4	..........a	-327.66
	135	0.0272	-1.82230E-001	-1.36447E-008	0.00000E+000	-1.82400E-001	8.00223E-005	4	..........a	-327.66
	138	0.0278	-1.52330E-001	-1.32927E-008	0.00000E+000	-1.52400E-001	8.00223E-005	4	..........a	-327.66
	141	0.0284	-1.22430E-001	-1.29287E-008	0.00000E+000	-1.22400E-001	8.00223E-005	4	..........a	-327.66
	144	0.029	-9.23305E-002	-1.25437E-008	0.00000E+000	-9.24000E-002	8.00223E-005	4	..........a	-327.66
	147	0.0296	-6.23305E-002	-1.21397E-008	0.00000E+000	-6.24000E-002	8.00223E-005	4	..........a	-327.66
	150	0.0302	-3.23305E-002	-1.17207E-008	0.00000E+000	-3.24000E-002	8.00223E-005	4	..........a	-327.66
	153	0.0308	-2.23048E-003	-1.12926E-008	0.00000E+000	-2.40000E-003	8.00223E-005	4	..........a	-327.66
	156	0.0314	2.76695E-002	-1.08426E-008	0.00000E+000	2.76000E-002	8.00223E-005	4	..........a	-327.66
	159	0.032	5.77695E-002	-1.03856E-008	0.00000E+000	5.76000E-002	8.00223E-005	4	..........a	-327.66
	162	0.0326	8.76695E-002	-9.90859E-009	0.00000E+000	8.76000E-002	8.00223E-005	4	..........a	-327.66
	165	0.0332	1.17820E-001	-9.42757E-009	0.00000E+000	1.17600E-001	8.00223E-005	4	..........a	-327.66
	168	0.0338	1.47570E-001	-8.92756E-009	0.00000E+000	1.47600E-001	8.00223E-005	4	..........a	-327.66
	171	0.0344	1.77470E-001	-8.42054E-009	0.00000E+000	1.77600E-001	8.00223E-005	4	..........a	-327.66
	174	0.035	2.07470E-001	-7.89752E-009	0.00000E+000	2.07600E-001	8.00223E-005	4	..........a	-327.66
	177	0.0356	2.37670E-001	-7.36950E-009	0.00000E+000	2.37600E-001	8.00223E-005	4	..........a	-327.66
	180	0.0362	2.67670E-001	-6.82747E-009	0.00000E+000	2.67600E-001	8.00223E-005	4	..........a	-327.66
	183	0.0368	2.97670E-001	-6.27245E-009	0.00000E+000	2.97600E-001	-3.19978E-004	4	..........a	-327.66
	186	0.0374	3.27670E-001	-5.71543E-009	0.00000E+000	3.27600E-001	8.00223E-005	4	..........a	-327.66
	189	0.038	3.57570E-001	-5.14841E-009	0.00000E+000	3.57600E-001	8.00223E-005	4	..........a	-327.66
	192	0.0386	3.87570E-001	-4.57239E-009	0.00000E+000	3.87600E-001	8.00223E-005	4	..........a	-327.66
	195	0.0392	4.17470E-001	-3.98937E-009	0.00000E+000	4.17600E-001	8.00223E-005	4	..........a	-327.66
	198	0.0398	4.47570E-001	-3.39434E-009	0.00000E+000	4.47600E-001	8.00223E-005	4	..........a	-327.66
	201	0.0404	4.77670E-001	-2.79432E-009	0.00000E+000	4.77600E-001	8.00223E-005	4	..........a	-327.66
	204	0.041	5.07369E-001	-2.18930E-009	0.00000E+000	5.07600E-001	8.00223E-005	4	..........a	-327.66
	207	0.0416	5.37569E-001	-1.57627E-009	0.00000E+000	5.37600E-001	8.00223E-005	4	..........a	-327.66
	210	0.0422	5.67569E-001	-9.43249E-010	0.00000E+000	5.67600E-001	8.00223E-005	4	..........a	-327.66
	213	0.0428	5.97369E-001	-3.08224E-010	0.00000E+000	5.97600E-001	8.00223E-005	4	..........a	-327.66
	216	0.0434	6.27469E-001	3.43801E-010	0.00000E+000	6.27600E-001	8.00223E-005	4	..........a	-327.66
	219	0.044	6.57269E-001	1.01483E-009	0.00000E+000	6.57600E-001	-3.19978E-004	4	..........a	-327.66
	222	0.0446	6.87469E-001	1.70185E-009	0.00000E+000	6.87600E-001	8.00223E-005	4	..........a	-327.66
	225	0.0452	7.17469E-001	2.41288E-009	0.00000E+000	7.17600E-001	8.00223E-005	4	..........a	-327.66
	228	0.0458	7.47469E-001	3.14591E-009	0.00000E+000	7.47600E-001	8.00223E-005	4	..........a	-327.66
	231	0.0464	7.77569E-001	3.90994E-009	0.00000E+000	7.77600E-001	8.00223E-005	4	..........a	-327.66
	233	0.0468	7.97469E-001	4.43596E-009	0.00000E+000	7.97600E-001	8.00223E-005	4	..........a	-327.66
CURVE2	TABLE
	Pt	T	Vf	Im	Vu	Sig	Ach	IERange	Over	Temp
	#	s	V vs. Ref.	A	V	V	V	#	bits	deg C
	234	0.047	7.89970E-001	4.61796E-009	0.00000E+000	7.90000E-001	8.00223E-005	4	..........a	-327.66
	237	0.0476	7.60019E-001	4.97198E-009	0.00000E+000	7.60000E-001	8.00223E-005	4	..........a	-327.66
	240	0.0482	7.29970E-001	5.16999E-009	0.00000E+000	7.30000E-001	8.00223E-005	4	..........a	-327.66
	243	0.0488	6.99969E-001	5.27299E-009	0.00000E+000	7.00000E-001	8.00223E-005	4	..........a	-327.66
	246	0.0494	6.70069E-001	5.28999E-009	0.00000E+000	6.70000E-001	8.00223E-005	4	..........a	-327.66
	249	0.05	6.39820E-001	5.26299E-009	0.00000E+000	6.40000E-001	8.00223E-005	4	..........a	-327.66
	252	0.0506	6.09969E-001	5.18399E-009	0.00000E+000	6.10000E-001	8.00223E-005	4	..........a	-327.66
	255	0.0512	5.79969E-001	5.07198E-009	0.00000E+000	5.80000E-001	8.00223E-005	4	..........a	-327.66
	258	0.0518	5.50070E-001	4.92398E-009	0.00000E+000	5.50000E-001	8.00223E-005	4	..........a	-327.66
	261	0.0524	5.19870E-001	4.74997E-009	0.00000E+000	5.20000E-001	8.00223E-005	4	..........a	-327.66
	264	0.053	4.90070E-001	4.53696E-009	0.00000E+000	4.90000E-001	8.00223E-005	4	..........a	-327.66
	267	0.0536	4.59770E-001	4.30495E-009	0.00000E+000	4.60000E-001	-2.19978E-004	4	..........a	-327.66
	270	0.0542	4.29870E-001	4.04794E-009	0.00000E+000	4.30000E-001	8.00223E-005	4	..........a	-327.66
	273	0.0548	4.00070E-001	3.76993E-009	0.00000E+000	4.00000E-001	8.00223E-005	4	..........a	-327.66
	276	0.0554	3.70070E-001	3.46692E-009	0.00000E+000	3.70000E-001	8.00223E-005	4	..........a	-327.66
	279	0.056	3.40070E-001	3.14491E-009	0.00000E+000	3.40000E-001	8.00223E-005	4	..........a	-327.66
	282	0.0566	3.09920E-001	2.79389E-009	0.00000E+000	3.10000E-001	8.00223E-005	4	..........a	-327.66
	285	0.0572	2.79870E-001	2.43688E-009	0.00000E+000	2.80000E-001	8.00223E-005	4	..........a	-327.66
	288	0.0578	2.49870E-001	2.04987E-009	0.00000E+000	2.50000E-001	8.00223E-005	4	..........a	-327.66
	291	0.0584	2.20070E-001	1.64585E-009	0.00000E+000	2.20000E-001	8.00223E-005	4	..........a	-327.66
	294	0.059	1.90070E-001	1.22383E-009	0.00000E+000	1.90000E-001	8.00223E-005	4	..........a	-327.66
	297	0.0596	1.59920E-001	7.85818E-010	0.00000E+000	1.60000E-001	8.00223E-005	4	..........a	-327.66
	300	0.0602	1.29970E-001	3.22800E-010	0.00000E+000	1.30000E-001	8.00223E-005	4	..........a	-327.66
	303	0.0608	1.00220E-001	-1.49218E-010	0.00000E+000	1.00000E-001	8.00223E-005	4	..........a	-327.66
	306	0.0614	7.01695E-002	-6.30237E-010	0.00000E+000	7.00000E-002	8.00223E-005	4	..........a	-327.66
	309	0.062	4.02695E-002	-1.12626E-009	0.00000E+000	4.00000E-002	8.00223E-005	4	..........a	-327.66
	312	0.0626	1.00695E-002	-1.63128E-009	0.00000E+000	1.00000E-002	8.00223E-005	4	..........a	-327.66
	315	0.0632	-1.99305E-002	-2.14429E-009	0.00000E+000	-2.00000E-002	8.00223E-005	4	..........a	-327.66
	318	0.0638	-4.99305E-002	-2.66831E-009	0.00000E+000	-5.00000E-002	8.00223E-005	4	..........a	-327.66
	321	0.0644	-7.99305E-002	-3.19434E-009	0.00000E+000	-8.00000E-002	8.00223E-005	4	..........a	-327.66
	324	0.065	-1.10030E-001	-3.72536E-009	0.00000E+000	-1.10000E-001	8.00223E-005	4	..........a	-327.66
	327	0.0656	-1.40330E-001	-4.26238E-009	0.00000E+000	-1.40000E-001	8.00223E-005	4	..........a	-327.66
	330	0.0662	-1.69930E-001	-4.80240E-009	0.00000E+000	-1.70000E-001	-3.19978E-004	4	..........a	-327.66
	333	0.0668	-2.00030E-001	-5.34342E-009	0.00000E+000	-2.00000E-001	-1.19978E-004	4	..........a	-327.66
	336	0.0674	-2.29980E-001	-5.89044E-009	0.00000E+000	-2.30000E-001	8.00223E-005	4	..........a	-327.66
	339	0.068	-2.59830E-001	-6.43646E-009	0.00000E+000	-2.60000E-001	8.00223E-005	4	..........a	-327.66
	342	0.0686	-2.89930E-001	-6.98848E-009	0.00000E+000	-2.90000E-001	8.00223E-005	4	..........a	-327.66
	345	0.0692	-3.19830E-001	-7.53550E-009	0.00000E+000	-3.20000E-001	8.00223E-005	4	..........a	-327.66
	348	0.0698	-3.49930E-001	-8.10052E-009	0.00000E+000	-3.50000E-001	8.00223E-005	4	..........a	-327.66
	351	0.0704	-3.79830E-001	-8.66655E-009	0.00000E+000	-3.80000E-001	8.00223E-005	4	..........a	-327.66
[...]
	2642	0.5286	-3.09930E-001	-9.08856E-009	0.00000E+000	-3.10000E-001	8.00223E-005	4	..........a	-327.66
	2645	0.5292	-2.79780E-001	-8.85155E-009	0.00000E+000	-2.80000E-001	8.00223E-005	4	..........a	-327.66
	2648	0.5298	-2.49930E-001	-8.58054E-009	0.00000E+000	-2.50000E-001	8.00223E-005	4	..........a	-327.66
	2651	0.5304	-2.19930E-001	-8.29453E-009	0.00000E+000	-2.20000E-001	8.00223E-005	4	..........a	-327.66
	2654	0.531	-1.90330E-001	-7.98652E-009	0.00000E+000	-1.90000E-001	8.00223E-005	4	..........a	-327.66
	2657	0.5316	-1.59830E-001	-7.65851E-009	0.00000E+000	-1.60000E-001	8.00223E-005	4	..........a	-327.66
	2660	0.5322	-1.29930E-001	-7.31549E-009	0.00000E+000	-1.30000E-001	8.00223E-005	4	..........a	-327.66
	2663	0.5328	-9.99305E-002	-6.96248E-009	0.00000E+000	-1.00000E-001	8.00223E-005	4	..........a	-327.66
	2666	0.5334	-6.99305E-002	-6.59447E-009	0.00000E+000	-7.00000E-002	8.00223E-005	4	..........a	-327.66
	2669	0.534	-3.99305E-002	-6.20445E-009	0.00000E+000	-4.00000E-002	8.00223E-005	4	..........a	-327.66
	2672	0.5346	-1.00305E-002	-5.80844E-009	0.00000E+000	-1.00000E-002	-1.19978E-004	4	..........a	-327.66
	2675	0.5352	2.02195E-002	-5.40342E-009	0.00000E+000	2.00000E-002	8.00223E-005	4	..........a	-327.66
	2678	0.5358	5.00695E-002	-4.97140E-009	0.00000E+000	5.00000E-002	8.00223E-005	4	..........a	-327.66
	2681	0.5364	8.01695E-002	-4.54639E-009	0.00000E+000	8.00000E-002	8.00223E-005	4	..........a	-327.66
	2684	0.537	1.10070E-001	-4.10337E-009	0.00000E+000	1.10000E-001	8.00223E-005	4	..........a	-327.66
	2687	0.5376	1.40170E-001	-3.64635E-009	0.00000E+000	1.40000E-001	8.00223E-005	4	..........a	-327.66
	2690	0.5382	1.69870E-001	-3.17833E-009	0.00000E+000	1.70000E-001	8.00223E-005	4	..........a	-327.66
	2693	0.5388	1.99970E-001	-2.70732E-009	0.00000E+000	2.00000E-001	8.00223E-005	4	..........a	-327.66
	2696	0.5394	2.29870E-001	-2.21830E-009	0.00000E+000	2.30000E-001	8.00223E-005	4	..........a	-327.66
	2699	0.54	2.60070E-001	-1.72028E-009	0.00000E+000	2.60000E-001	8.00223E-005	4	..........a	-327.66
	2702	0.5406	2.89870E-001	-1.21026E-009	0.00000E+000	2.90000E-001	8.00223E-005	4	..........a	-327.66
	2705	0.5412	3.19970E-001	-6.88239E-010	0.00000E+000	3.20000E-001	8.00223E-005	4	..........a	-327.66
	2708	0.5418	3.50070E-001	-1.58218E-010	0.00000E+000	3.50000E-001	8.00223E-005	4	..........a	-327.66
	2711	0.5424	3.80120E-001	3.80802E-010	0.00000E+000	3.80000E-001	-3.19978E-004	4	..........a	-327.66
	2714	0.543	4.09770E-001	9.29823E-010	0.00000E+000	4.10000E-001	8.00223E-005	4	..........a	-327.66
	2717	0.5436	4.39870E-001	1.48984E-009	0.00000E+000	4.40000E-001	8.00223E-005	4	..........a	-327.66
	2720	0.5442	4.69970E-001	2.05187E-009	0.00000E+000	4.70000E-001	8.00223E-005	4	..........a	-327.66
	2723	0.5448	4.99970E-001	2.62789E-009	0.00000E+000	5.00000E-001	8.00223E-005	4	..........a	-327.66
	2726	0.5454	5.29920E-001	3.21391E-009	0.00000E+000	5.30000E-001	8.00223E-005	4	..........a	-327.66
	2729	0.546	5.60019E-001	3.81093E-009	0.00000E+000	5.60000E-001	8.00223E-005	4	..........a	-327.66
	2732	0.5466	5.89869E-001	4.41996E-009	0.00000E+000	5.90000E-001	8.00223E-005	4	..........a	-327.66
	2735	0.5472	6.20169E-001	5.04398E-009	0.00000E+000	6.20000E-001	8.00223E-005	4	..........a	-327.66
	2738	0.5478	6.49870E-001	5.68401E-009	0.00000E+000	6.50000E-001	8.00223E-005	4	..........a	-327.66
	2741	0.5484	6.79769E-001	6.34003E-009	0.00000E+000	6.80000E-001	8.00223E-005	4	..........a	-327.66
	2744	0.549	7.09870E-001	7.02306E-009	0.00000E+000	7.10000E-001	8.00223E-005	4	..........a	-327.66
	2747	0.5496	7.39769E-001	7.72608E-009	0.00000E+000	7.40000E-001	8.00223E-005	4	..........a	-327.66
	2750	0.5502	7.69919E-001	8.46211E-009	0.00000E+000	7.70000E-001	8.00223E-005	4	..........a	-327.66
	2753	0.5508	7.99769E-001	9.22914E-009	0.00000E+000	8.00000E-001	8.00223E-005	4	..........a	-327.66
CURVE11	TABLE
	Pt	T	Vf	Im	Vu	Sig	Ach	IERange	Over	Temp
	#	s	V vs. Ref.	A	V	V	V	#	bits	deg C
	2754	0.551	7.89970E-001	9.39415E-009	0.00000E+000	7.90000E-001	8.00223E-005	4	..........a	-327.66
	2755	0.5512	7.79769E-001	9.52115E-009	0.00000E+000	7.80000E-001	8.00223E-005	4	..........a	-327.66
	2756	0.5514	7.69769E-001	9.62416E-009	0.00000E+000	7.70000E-001	-3.19978E-004	4	..........a	-327.66
	2757	0.5516	7.59969E-001	9.71516E-009	0.00000E+000	7.60000E-001	8.00223E-005	4	..........a	-327.66
	2758	0.5518	7.49869E-001	9.78216E-009	0.00000E+000	7.50000E-001	8.00223E-005	4	..........a	-327.66
	2759	0.552	7.39969E-001	9.83617E-009	0.00000E+000	7.40000E-001	8.00223E-005	4	..........a	-327.66
	2760	0.5522	7.29869E-001	9.88917E-009	0.00000E+000	7.30000E-001	8.00223E-005	4	..........a	-327.66
	2761	0.5524	7.20069E-001	9.91717E-009	0.00000E+000	7.20000E-001	8.00223E-005	4	..........a	-327.66
	2762	0.5526	7.09870E-001	9.93717E-009	0.00000E+000	7.10000E-001	8.00223E-005	4	..........a	-327.66
	2763	0.5528	6.99769E-001	9.95017E-009	0.00000E+000	7.00000E-001	8.00223E-005	4	..........a	-327.66
	2764	0.553	6.89869E-001	9.94817E-009	0.00000E+000	6.90000E-001	8.00223E-005	4	..........a	-327.66
	2765	0.5532	6.79869E-001	9.95017E-009	0.00000E+000	6.80000E-001	8.00223E-005	4	..........a	-327.66
	2766	0.5534	6.69869E-001	9.94617E-009	0.00000E+000	6.70000E-001	8.00223E-005	4	..........a	-327.66
	2767	0.5536	6.59869E-001	9.93217E-009	0.00000E+000	6.60000E-001	8.00223E-005	4	..........a	-327.66
	2768	0.5538	6.50069E-001	9.91017E-009	0.00000E+000	6.50000E-001	8.00223E-005	4	..........a	-327.66
	2769	0.554	6.39669E-001	9.88817E-009	0.00000E+000	6.40000E-001	8.00223E-005	4	..........a	-327.66
	2770	0.5542	6.29969E-001	9.85517E-009	0.00000E+000	6.30000E-001	8.00223E-005	4	..........a	-327.66
	2771	0.5544	6.20070E-001	9.81816E-009	0.00000E+000	6.20000E-001	8.00223E-005	4	..........a	-327.66
	2772	0.5546	6.09869E-001	9.77416E-009	0.00000E+000	6.10000E-001	8.00223E-005	4	..........a	-327.66
	2773	0.5548	5.99970E-001	9.72616E-009	0.00000E+000	6.00000E-001	-2.19978E-004	4	..........a	-327.66
	2774	0.555	5.89969E-001	9.67816E-009	0.00000E+000	5.90000E-001	8.00223E-005	4	..........a	-327.66
	2775	0.5552	5.80069E-001	9.62616E-009	0.00000E+000	5.80000E-001	8.00223E-005	4	..........a	-327.66
	2776	0.5554	5.69969E-001	9.56615E-009	0.00000E+000	5.70000E-001	8.00223E-005	4	..........a	-327.66
	2777	0.5556	5.59770E-001	9.50415E-009	0.00000E+000	5.60000E-001	8.00223E-005	4	..........a	-327.66
	2778	0.5558	5.49969E-001	9.43815E-009	0.00000E+000	5.50000E-001	8.00223E-005	4	..........a	-327.66
	2779	0.556	5.40069E-001	9.37215E-009	0.00000E+000	5.40000E-001	8.00223E-005	4	..........a	-327.66
	2780	0.5562	5.29970E-001	9.29914E-009	0.00000E+000	5.30000E-001	8.00223E-005	4	..........a	-327.66
	2781	0.5564	5.19969E-001	9.22414E-009	0.00000E+000	5.20000E-001	8.00223E-005	4	..........a	-327.66
	2782	0.5566	5.09969E-001	9.14614E-009	0.00000E+000	5.10000E-001	8.00223E-005	4	..........a	-327.66
	2783	0.5568	4.99970E-001	9.06814E-009	0.00000E+000	5.00000E-001	8.00223E-005	4	..........a	-327.66
	2784	0.557	4.89970E-001	8.98413E-009	0.00000E+000	4.90000E-001	8.00223E-005	4	..........a	-327.66
	2785	0.5572	4.79720E-001	8.88913E-009	0.00000E+000	4.80000E-001	8.00223E-005	4	..........a	-327.66
	2786	0.5574	4.69970E-001	8.79613E-009	0.00000E+000	4.70000E-001	-1.19978E-004	4	..........a	-327.66
	2787	0.5576	4.60070E-001	8.70812E-009	0.00000E+000	4.60000E-001	8.00223E-005	4	..........a	-327.66
	2788	0.5578	4.49870E-001	8.61112E-009	0.00000E+000	4.50000E-001	8.00223E-005	4	..........a	-327.66
	2789	0.558	4.39820E-001	8.51311E-009	0.00000E+000	4.40000E-001	8.00223E-005	4	..........a	-327.66
	2790	0.5582	4.29870E-001	8.41211E-009	0.00000E+000	4.30000E-001	8.00223E-005	4	..........a	-327.66
	2791	0.5584	4.19970E-001	8.30711E-009	0.00000E+000	4.20000E-001	8.00223E-005	4	..........a	-327.66
	2792	0.5586	4.09970E-001	8.19810E-009	0.00000E+000	4.10000E-001	8.00223E-005	4	..........a	-327.66
	2793	0.5588	3.99970E-001	8.09210E-009	0.00000E+000	4.00000E-001	8.00223E-005	4	..........a	-327.66
	2794	0.559	3.90070E-001	7.97309E-009	0.00000E+000	3.90000E-001	8.00223E-005	4	..........a	-327.66
	2795	0.5592	3.79970E-001	7.86209E-009	0.00000E+000	3.80000E-001	8.00223E-005	4	..........a	-327.66
	2796	0.5594	3.69970E-001	7.74009E-009	0.00000E+000	3.70000E-001	8.00223E-005	4	..........a	-327.66
	2797	0.5596	3.59970E-001	7.62008E-009	0.00000E+000	3.60000E-001	8.00223E-005	4	..........a	-327.66
	2798	0.5598	3.49870E-001	7.50008E-009	0.00000E+000	3.50000E-001	8.00223E-005	4	..........a	-327.66
	2799	0.56	3.40070E-001	7.37307E-009	0.00000E+000	3.40000E-001	8.00223E-005	4	..........a	-327.66
	2800	0.5602	3.29970E-001	7.24207E-009	0.00000E+000	3.30000E-001	8.00223E-005	4	..........a	-327.66