File: example_project/raw_outputs/20240321_ZZH_GM0016_HL03_E15_CV50k.DTA
EXPLAIN
TAG	CV
TITLE	LABEL	Cyclic Voltammetry	Test &Identifier
DATE	LABEL	3/21/2024	Date
TIME	LABEL	19:54:25	Time
NOTES	NOTES	1	&Notes...

PSTAT	PSTAT	REF600P-43058	Potentiostat
VINIT	POTEN	0.00000E+000	T	Initial &E (V)
VLIMIT1	POTEN	-6.00000E-001	F	Scan Limit &1 (V)
VLIMIT2	POTEN	8.00000E-001	F	Scan Limit &2 (V)
VFINAL	POTEN	0.00000E+000	T	Final &E (V)
SCANRATE	QUANT	4.99999E+004	&Scan Rate (mV/s)
STEPSIZE	QUANT	1.00000E+001	St&ep Size (mV)
CYCLES	IQUANT	10	C&ycles (#)
IMODE	SELECTOR	1	I/E Range &Mode
IRANGE	QUANT	1.00000E-005	&Max Current (mA)
AREA	QUANT	1.00000E+000	Electrode &Area (cm^2)
ELECTRODETYPE	SELECTOR	0	Electrode Type
STRIPPING	TOGGLE	F	Used for Stripping
POLARITY	TOGGLE	F	Signal Polarity
CONDIT	TWOPARAM	F	1.50000E+001	0.00000E+000	Conditionin&g	Time(s)	E(V)
DELAY	TWOPARAM	T	1.00000E+001	0.00000E+000	Init. De&lay	Time(s)	Stab.(mV/s)
EQDELAY	QUANT	1.00000E+001	Equil. &Time (s)
IRCOMP	SELECTOR	0	IRCom&p
PFCOR	QUANT	5.00000E+001	PF Corr. (ohm)
SAMPLINGMODE	SELECTOR	1	Sampling &Mode
OCVCURVE	TABLE	39
	Pt	T	Vf	Vm	Ach	Over	Temp
	#	s	V vs. Ref.	V	V	bits	deg C
	0	0.258333	3.05964E-001	3.05964E-001	2.35956E-004	..........a	-327.66
	1	0.516667	3.05971E-001	3.06375E-001	2.42422E-004	..........a	-327.66
	2	0.775	3.06015E-001	3.06532E-001	2.48956E-004	..........a	-327.66
	3	1.03333	3.06126E-001	3.06756E-001	2.46689E-004	..........a	-327.66
	4	1.29167	3.06303E-001	3.07057E-001	2.36822E-004	..........a	-327.66
	5	1.55	3.06523E-001	3.07329E-001	2.54289E-004	..........a	-327.66
	6	1.80833	3.06768E-001	3.07576E-001	2.38556E-004	..........a	-327.66
	7	2.06667	3.07032E-001	3.08000E-001	2.55822E-004	..........a	-327.66
	8	2.325	3.07311E-001	3.08154E-001	2.39689E-004	..........a	-327.66
	9	2.58333	3.07598E-001	3.08367E-001	2.30756E-004	..........a	-327.66
	10	2.84167	3.07877E-001	3.08668E-001	2.42356E-004	..........a	-327.66
	11	3.1	3.08138E-001	3.08936E-001	2.46622E-004	..........a	-327.66
	12	3.35833	3.08391E-001	3.09176E-001	2.45556E-004	..........a	-327.66
	13	3.61667	3.08648E-001	3.09568E-001	2.58689E-004	..........a	-327.66
	14	3.875	3.08916E-001	3.09722E-001	2.50089E-004	..........a	-327.66
	15	4.13333	3.09192E-001	3.09964E-001	2.48422E-004	..........a	-327.66
	16	4.39167	3.09462E-001	3.10252E-001	2.45356E-004	..........a	-327.66
	17	4.65	3.09720E-001	3.10522E-001	2.50222E-004	..........a	-327.66
	18	4.90833	3.09973E-001	3.10761E-001	2.32556E-004	..........a	-327.66
	19	5.16667	3.10232E-001	3.11157E-001	2.49822E-004	..........a	-327.66
	20	5.425	3.10502E-001	3.11311E-001	2.54422E-004	..........a	-327.66
	21	5.68333	3.10779E-001	3.11538E-001	2.52022E-004	..........a	-327.66
	22	5.94167	3.11048E-001	3.11829E-001	2.44489E-004	..........a	-327.66
	23	6.2	3.11304E-001	3.12105E-001	2.58689E-004	..........a	-327.66
	24	6.45833	3.11554E-001	3.12335E-001	2.41956E-004	..........a	-327.66
	25	6.71667	3.11811E-001	3.12680E-001	2.39356E-004	..........a	-327.66
	26	6.975	3.12075E-001	3.12917E-001	2.57089E-004	..........a	-327.66
	27	7.23333	3.12347E-001	3.13111E-001	2.43222E-004	..........a	-327.66
	28	7.49167	3.12616E-001	3.13400E-001	2.38489E-004	..........a	-327.66
	29	7.75	3.12874E-001	3.13667E-001	2.49756E-004	..........a	-327.66
	30	8.00833	3.13127E-001	3.13890E-001	2.36089E-004	..........a	-327.66
	31	8.26667	3.13380E-001	3.14233E-001	2.42222E-004	..........a	-327.66
	32	8.525	3.13640E-001	3.14472E-001	2.52489E-004	..........a	-327.66
	33	8.78333	3.13906E-001	3.14675E-001	2.44956E-004	..........a	-327.66
	34	9.04167	3.14172E-001	3.14939E-001	2.49022E-004	..........a	-327.66
	35	9.3	3.14429E-001	3.15197E-001	2.56822E-004	..........a	-327.66
	36	9.5583	3.14678E-001	3.15458E-001	2.47089E-004	..........a	-327.66
	37	9.8167	3.14927E-001	3.15751E-001	2.36222E-004	..........a	-327.66
	38	10.075	3.15185E-001	3.16031E-001	2.52489E-004	..........a	-327.66
EOC	QUANT	0.3151845	Open Circuit (V)
PSTATMODEL	IQUANT	7	Pstat Model
PSTATSECTION	LABEL	REF600P-43058	Pstat Section
PSTATSERIALNO	LABEL	43058	Pstat Serial Number
CTRLMODE	IQUANT	1	Control Mode
ELECTROMETER	IQUANT	0	RE=0 or CS=1
IESTAB	IQUANT	2	I/E Stability
CASPEED	IQUANT	4	Control Amp Speed
CONVENTION	IQUANT	1	Current Convention
ICHRANGE	IQUANT	2	Ich Range
ICHRANGEMODE	TOGGLE	F	Ich Auto Range
ICHOFFSETENABLE	TOGGLE	F	Ich Offset Enable
ICHOFFSET	QUANT	0	Ich Offset (V)
ICHFILTER	IQUANT	1	Ich Filter
VCHRANGE	IQUANT	2	Vch Range
VCHRANGEMODE	TOGGLE	F	Vch Auto Range
VCHOFFSETENABLE	TOGGLE	F	Vch Offset Enable
VCHOFFSET	QUANT	0	Vch Offset (V)
VCHFILTER	IQUANT	1	Vch Filter
ACHRANGE	IQUANT	2	Ach Range
ACHOFFSETENABLE	TOGGLE	F	Ach Offset Enable
ACHOFFSET	QUANT	0	Ach Offset (V)
ACHFILTER	IQUANT	1	Ach Filter
IERANGELOWERLIMIT	IQUANT	1	I/E Range Lower Limit
IERANGEMODE	TOGGLE	F	I/E AutoRange
IERANGE	IQUANT	4	I/E Range
POSFEEDENABLE	TOGGLE	F	Positive Feedback IR Comp
POSFEEDRESISTANCE	QUANT	0	Positive Feedback Resistance (ohm)
ACHSELECT	IQUANT	4	Ach Select
SENSECABLEID	IQUANT	7	Sense Cable ID
PWRCABLEID	IQUANT	7	Power Cable ID
DCCALDATE	LABEL	12/18/2023	DC Calibration Date
ACCALDATE	LABEL	12/18/2023	AC Calibration Date
THERMOSELECT	IQUANT	1	Thermo Select
FRAMEWORKVERSION	LABEL	7.8.4	Framework Version
INSTRUMENTVERSION	LABEL	4.42	Instrument Version
CURVE1	TABLE
	Pt	T	Vf	Im	Vu	Sig	Ach	IERange	Over	Temp
	#	s	V vs. Ref.	A	V	V	V	#	bits	deg C
	0	0.0002	3.15170E-001	2.47886E-011	0.00000E+000	3.15200E-001	8.00223E-005	4	..........a	-327.66
	3	0.0008	2.85070E-001	-9.82161E-011	0.00000E+000	2.85200E-001	8.00223E-005	4	..........a	-327.66
	6	0.0014	2.55270E-001	-2.32221E-010	0.00000E+000	2.55200E-001	8.00223E-005	4	..........a	-327.66
	9	0.002	2.25270E-001	-3.82227E-010	0.00000E+000	2.25200E-001	8.00223E-005	4	..........a	-327.66
	12	0.0026	1.95270E-001	-5.46233E-010	0.00000E+000	1.95200E-001	-4.19978E-004	4	..........a	-327.66
	15	0.0032	1.65170E-001	-7.27240E-010	0.00000E+000	1.65200E-001	8.00223E-005	4	..........a	-327.66
	18	0.0038	1.35270E-001	-9.30248E-010	0.00000E+000	1.35200E-001	-4.19978E-004	4	..........a	-327.66
	21	0.0044	1.05370E-001	-1.13626E-009	0.00000E+000	1.05200E-001	8.00223E-005	4	..........a	-327.66
	24	0.005	7.52695E-002	-1.36626E-009	0.00000E+000	7.52000E-002	8.00223E-005	4	..........a	-327.66
	27	0.0056	4.51695E-002	-1.61627E-009	0.00000E+000	4.52000E-002	-3.19978E-004	4	..........a	-327.66
	30	0.0062	1.44695E-002	-1.88728E-009	0.00000E+000	1.52000E-002	8.00223E-005	4	..........a	-327.66
	33	0.0068	-1.47805E-002	-2.18030E-009	0.00000E+000	-1.48000E-002	8.00223E-005	4	..........a	-327.66
	36	0.0074	-4.48305E-002	-2.49031E-009	0.00000E+000	-4.48000E-002	8.00223E-005	4	..........a	-327.66
	39	0.008	-7.49305E-002	-2.82032E-009	0.00000E+000	-7.48000E-002	-2.19978E-004	4	..........a	-327.66
	42	0.0086	-1.04630E-001	-3.16433E-009	0.00000E+000	-1.04800E-001	8.00223E-005	4	..........a	-327.66
	45	0.0092	-1.34930E-001	-3.52835E-009	0.00000E+000	-1.34800E-001	8.00223E-005	4	..........a	-327.66
	48	0.0098	-1.64730E-001	-3.90636E-009	0.00000E+000	-1.64800E-001	8.00223E-005	4	..........a	-327.66
	51	0.0104	-1.94830E-001	-4.29238E-009	0.00000E+000	-1.94800E-001	8.00223E-005	4	..........a	-327.66
	54	0.011	-2.24730E-001	-4.68839E-009	0.00000E+000	-2.24800E-001	8.00223E-005	4	..........a	-327.66
	57	0.0116	-2.54730E-001	-5.09041E-009	0.00000E+000	-2.54800E-001	8.00223E-005	4	..........a	-327.66
	60	0.0122	-2.84730E-001	-5.50642E-009	0.00000E+000	-2.84800E-001	8.00223E-005	4	..........a	-327.66
	63	0.0128	-3.14730E-001	-5.92444E-009	0.00000E+000	-3.14800E-001	8.00223E-005	4	..........a	-327.66
	66	0.0134	-3.44630E-001	-6.34946E-009	0.00000E+000	-3.44800E-001	8.00223E-005	4	..........a	-327.66
	69	0.014	-3.74730E-001	-6.78047E-009	0.00000E+000	-3.74800E-001	8.00223E-005	4	..........a	-327.66
	72	0.0146	-4.04730E-001	-7.20849E-009	0.00000E+000	-4.04800E-001	8.00223E-005	4	..........a	-327.66
	75	0.0152	-4.34730E-001	-7.64851E-009	0.00000E+000	-4.34800E-001	8.00223E-005	4	..........a	-327.66
	78	0.0158	-4.64630E-001	-8.10052E-009	0.00000E+000	-4.64800E-001	8.00223E-005	4	..........a	-327.66
	81	0.0164	-4.94630E-001	-8.55654E-009	0.00000E+000	-4.94800E-001	8.00223E-005	4	..........a	-327.66
	84	0.017	-5.24731E-001	-9.02856E-009	0.00000E+000	-5.24800E-001	8.00223E-005	4	..........a	-327.66
	87	0.0176	-5.54730E-001	-9.51058E-009	0.00000E+000	-5.54800E-001	-3.19978E-004	4	..........a	-327.66
	90	0.0182	-5.84731E-001	-1.00186E-008	0.00000E+000	-5.84800E-001	8.00223E-005	4	..........a	-327.66
	93	0.0188	-5.74530E-001	-1.02746E-008	0.00000E+000	-5.74800E-001	8.00223E-005	4	..........a	-327.66
	96	0.0194	-5.44531E-001	-1.02836E-008	0.00000E+000	-5.44800E-001	8.00223E-005	4	..........a	-327.66
	99	0.02	-5.14731E-001	-1.02236E-008	0.00000E+000	-5.14800E-001	8.00223E-005	4	..........a	-327.66
	102	0.0206	-4.84730E-001	-1.01156E-008	0.00000E+000	-4.84800E-001	8.00223E-005	4	..........a	-327.66
	105	0.0212	-4.54730E-001	-9.98060E-009	0.00000E+000	-4.54800E-001	8.00223E-005	4	..........a	-327.66
	108	0.0218	-4.24630E-001	-9.82259E-009	0.00000E+000	-4.24800E-001	8.00223E-005	4	..........a	-327.66
	111	0.0224	-3.94730E-001	-9.64458E-009	0.00000E+000	-3.94800E-001	8.00223E-005	4	..........a	-327.66
	114	0.023	-3.65030E-001	-9.45558E-009	0.00000E+000	-3.64800E-001	8.00223E-005	4	..........a	-327.66
	117	0.0236	-3.34730E-001	-9.25457E-009	0.00000E+000	-3.34800E-001	8.00223E-005	4	..........a	-327.66
	120	0.0242	-3.04630E-001	-9.04456E-009	0.00000E+000	-3.04800E-001	8.00223E-005	4	..........a	-327.66
	123	0.0248	-2.74730E-001	-8.82355E-009	0.00000E+000	-2.74800E-001	8.00223E-005	4	..........a	-327.66
	126	0.0254	-2.44630E-001	-8.59454E-009	0.00000E+000	-2.44800E-001	8.00223E-005	4	..........a	-327.66
	129	0.026	-2.14730E-001	-8.35853E-009	0.00000E+000	-2.14800E-001	8.00223E-005	4	..........a	-327.66
	132	0.0266	-1.84630E-001	-8.11952E-009	0.00000E+000	-1.84800E-001	8.00223E-005	4	..........a	-327.66
	135	0.0272	-1.54830E-001	-7.87452E-009	0.00000E+000	-1.54800E-001	8.00223E-005	4	..........a	-327.66
	138	0.0278	-1.24730E-001	-7.62351E-009	0.00000E+000	-1.24800E-001	8.00223E-005	4	..........a	-327.66
	141	0.0284	-9.47305E-002	-7.36950E-009	0.00000E+000	-9.48000E-002	-3.19978E-004	4	..........a	-327.66
	144	0.029	-6.47805E-002	-7.10849E-009	0.00000E+000	-6.48000E-002	8.00223E-005	4	..........a	-327.66
	147	0.0296	-3.47305E-002	-6.83948E-009	0.00000E+000	-3.48000E-002	8.00223E-005	4	..........a	-327.66
	150	0.0302	-4.53048E-003	-6.57246E-009	0.00000E+000	-4.80000E-003	8.00223E-005	4	..........a	-327.66
	153	0.0308	2.52695E-002	-6.30045E-009	0.00000E+000	2.52000E-002	8.00223E-005	4	..........a	-327.66
	156	0.0314	5.52695E-002	-6.01444E-009	0.00000E+000	5.52000E-002	-3.19978E-004	4	..........a	-327.66
	159	0.032	8.52695E-002	-5.73043E-009	0.00000E+000	8.52000E-002	8.00223E-005	4	..........a	-327.66
	162	0.0326	1.15270E-001	-5.44242E-009	0.00000E+000	1.15200E-001	8.00223E-005	4	..........a	-327.66
	165	0.0332	1.45370E-001	-5.14941E-009	0.00000E+000	1.45200E-001	8.00223E-005	4	..........a	-327.66
	168	0.0338	1.75270E-001	-4.84440E-009	0.00000E+000	1.75200E-001	8.00223E-005	4	..........a	-327.66
	171	0.0344	2.05270E-001	-4.54139E-009	0.00000E+000	2.05200E-001	8.00223E-005	4	..........a	-327.66
	174	0.035	2.35170E-001	-4.22938E-009	0.00000E+000	2.35200E-001	8.00223E-005	4	..........a	-327.66
	177	0.0356	2.65170E-001	-3.90936E-009	0.00000E+000	2.65200E-001	8.00223E-005	4	..........a	-327.66
	180	0.0362	2.95370E-001	-3.58635E-009	0.00000E+000	2.95200E-001	8.00223E-005	4	..........a	-327.66
	183	0.0368	3.25270E-001	-3.25134E-009	0.00000E+000	3.25200E-001	8.00223E-005	4	..........a	-327.66
	186	0.0374	3.55170E-001	-2.91132E-009	0.00000E+000	3.55200E-001	-3.19978E-004	4	..........a	-327.66
	189	0.038	3.85170E-001	-2.56531E-009	0.00000E+000	3.85200E-001	8.00223E-005	4	..........a	-327.66
	192	0.0386	4.15070E-001	-2.20030E-009	0.00000E+000	4.15200E-001	8.00223E-005	4	..........a	-327.66
	195	0.0392	4.45170E-001	-1.83428E-009	0.00000E+000	4.45200E-001	8.00223E-005	4	..........a	-327.66
	198	0.0398	4.75070E-001	-1.45027E-009	0.00000E+000	4.75200E-001	8.00223E-005	4	..........a	-327.66
	201	0.0404	5.05069E-001	-1.05625E-009	0.00000E+000	5.05200E-001	8.00223E-005	4	..........a	-327.66
	204	0.041	5.35320E-001	-6.33237E-010	0.00000E+000	5.35200E-001	8.00223E-005	4	..........a	-327.66
	207	0.0416	5.65120E-001	-1.94220E-010	0.00000E+000	5.65200E-001	8.00223E-005	4	..........a	-327.66
	210	0.0422	5.95069E-001	2.69798E-010	0.00000E+000	5.95200E-001	8.00223E-005	4	..........a	-327.66
	213	0.0428	6.25069E-001	7.57817E-010	0.00000E+000	6.25200E-001	8.00223E-005	4	..........a	-327.66
	216	0.0434	6.55320E-001	1.27784E-009	0.00000E+000	6.55200E-001	8.00223E-005	4	..........a	-327.66
	219	0.044	6.85070E-001	1.83186E-009	0.00000E+000	6.85200E-001	8.00223E-005	4	..........a	-327.66
	222	0.0446	7.14969E-001	2.42788E-009	0.00000E+000	7.15200E-001	8.00223E-005	4	..........a	-327.66
	225	0.0452	7.45169E-001	3.07191E-009	0.00000E+000	7.45200E-001	8.00223E-005	4	..........a	-327.66
	228	0.0458	7.74969E-001	3.75193E-009	0.00000E+000	7.75200E-001	8.00223E-005	4	..........a	-327.66
	230	0.0462	7.95169E-001	4.24095E-009	0.00000E+000	7.95200E-001	8.00223E-005	4	..........a	-327.66
CURVE2	TABLE
	Pt	T	Vf	Im	Vu	Sig	Ach	IERange	Over	Temp
	#	s	V vs. Ref.	A	V	V	V	#	bits	deg C
	231	0.0464	7.89819E-001	4.39596E-009	0.00000E+000	7.90000E-001	8.00223E-005	4	..........a	-327.66
	234	0.047	7.59719E-001	4.60996E-009	0.00000E+000	7.60000E-001	8.00223E-005	4	..........a	-327.66
	237	0.0476	7.29970E-001	4.66597E-009	0.00000E+000	7.30000E-001	8.00223E-005	4	..........a	-327.66
	240	0.0482	6.99669E-001	4.63997E-009	0.00000E+000	7.00000E-001	-4.19978E-004	4	..........a	-327.66
	243	0.0488	6.69969E-001	4.54196E-009	0.00000E+000	6.70000E-001	8.00223E-005	4	..........a	-327.66
	246	0.0494	6.39769E-001	4.42296E-009	0.00000E+000	6.40000E-001	-2.19978E-004	4	..........a	-327.66
	249	0.05	6.09969E-001	4.27995E-009	0.00000E+000	6.10000E-001	8.00223E-005	4	..........a	-327.66
	252	0.0506	5.79969E-001	4.11095E-009	0.00000E+000	5.80000E-001	8.00223E-005	4	..........a	-327.66
	255	0.0512	5.49919E-001	3.92794E-009	0.00000E+000	5.50000E-001	8.00223E-005	4	..........a	-327.66
	258	0.0518	5.19870E-001	3.73093E-009	0.00000E+000	5.20000E-001	8.00223E-005	4	..........a	-327.66
	261	0.0524	4.89920E-001	3.52092E-009	0.00000E+000	4.90000E-001	8.00223E-005	4	..........a	-327.66
	264	0.053	4.60070E-001	3.29991E-009	0.00000E+000	4.60000E-001	8.00223E-005	4	..........a	-327.66
	267	0.0536	4.29970E-001	3.06791E-009	0.00000E+000	4.30000E-001	8.00223E-005	4	..........a	-327.66
	270	0.0542	3.99820E-001	2.82490E-009	0.00000E+000	4.00000E-001	8.00223E-005	4	..........a	-327.66
	273	0.0548	3.69970E-001	2.56789E-009	0.00000E+000	3.70000E-001	8.00223E-005	4	..........a	-327.66
	276	0.0554	3.39870E-001	2.29688E-009	0.00000E+000	3.40000E-001	8.00223E-005	4	..........a	-327.66
	279	0.056	3.10070E-001	2.01387E-009	0.00000E+000	3.10000E-001	8.00223E-005	4	..........a	-327.66
	282	0.0566	2.79970E-001	1.71185E-009	0.00000E+000	2.80000E-001	8.00223E-005	4	..........a	-327.66
	285	0.0572	2.49970E-001	1.39884E-009	0.00000E+000	2.50000E-001	8.00223E-005	4	..........a	-327.66
	288	0.0578	2.19670E-001	1.06783E-009	0.00000E+000	2.20000E-001	8.00223E-005	4	..........a	-327.66
	291	0.0584	1.90070E-001	7.16815E-010	0.00000E+000	1.90000E-001	8.00223E-005	4	..........a	-327.66
	294	0.059	1.60070E-001	3.54801E-010	0.00000E+000	1.60000E-001	8.00223E-005	4	..........a	-327.66
	297	0.0596	1.29970E-001	-2.72134E-011	0.00000E+000	1.30000E-001	8.00223E-005	4	..........a	-327.66
	300	0.0602	1.00070E-001	-4.22229E-010	0.00000E+000	1.00000E-001	8.00223E-005	4	..........a	-327.66
	303	0.0608	6.99695E-002	-8.22244E-010	0.00000E+000	7.00000E-002	8.00223E-005	4	..........a	-327.66
	306	0.0614	4.00695E-002	-1.22726E-009	0.00000E+000	4.00000E-002	8.00223E-005	4	..........a	-327.66
	309	0.062	1.00695E-002	-1.63928E-009	0.00000E+000	1.00000E-002	8.00223E-005	4	..........a	-327.66
	312	0.0626	-1.99305E-002	-2.04329E-009	0.00000E+000	-2.00000E-002	8.00223E-005	4	..........a	-327.66
	315	0.0632	-4.99305E-002	-2.45031E-009	0.00000E+000	-5.00000E-002	8.00223E-005	4	..........a	-327.66
	318	0.0638	-8.00305E-002	-2.85232E-009	0.00000E+000	-8.00000E-002	8.00223E-005	4	..........a	-327.66
	321	0.0644	-1.10030E-001	-3.23634E-009	0.00000E+000	-1.10000E-001	-3.19978E-004	4	..........a	-327.66
	324	0.065	-1.39930E-001	-3.61235E-009	0.00000E+000	-1.40000E-001	8.00223E-005	4	..........a	-327.66
	327	0.0656	-1.69930E-001	-3.98337E-009	0.00000E+000	-1.70000E-001	8.00223E-005	4	..........a	-327.66
	330	0.0662	-2.00030E-001	-4.34738E-009	0.00000E+000	-2.00000E-001	8.00223E-005	4	..........a	-327.66
	333	0.0668	-2.29930E-001	-4.69839E-009	0.00000E+000	-2.30000E-001	8.00223E-005	4	..........a	-327.66
	336	0.0674	-2.59730E-001	-5.05441E-009	0.00000E+000	-2.60000E-001	8.00223E-005	4	..........a	-327.66
	339	0.068	-2.89930E-001	-5.40442E-009	0.00000E+000	-2.90000E-001	8.00223E-005	4	..........a	-327.66
	342	0.0686	-3.19930E-001	-5.74143E-009	0.00000E+000	-3.20000E-001	8.00223E-005	4	..........a	-327.66
	345	0.0692	-3.49930E-001	-6.08245E-009	0.00000E+000	-3.50000E-001	8.00223E-005	4	..........a	-327.66
	348	0.0698	-3.80130E-001	-6.42846E-009	0.00000E+000	-3.80000E-001	8.00223E-005	4	..........a	-327.66
	351	0.0704	-4.09930E-001	-6.77147E-009	0.00000E+000	-4.10000E-001	8.00223E-005	4	..........a	-327.66
[...]
	2642	0.5286	-2.79930E-001	-5.54343E-009	0.00000E+000	-2.80000E-001	8.00223E-005	4	..........a	-327.66
	2645	0.5292	-2.50030E-001	-5.33242E-009	0.00000E+000	-2.50000E-001	8.00223E-005	4	..........a	-327.66
	2648	0.5298	-2.19930E-001	-5.11141E-009	0.00000E+000	-2.20000E-001	8.00223E-005	4	..........a	-327.66
	2651	0.5304	-1.90330E-001	-4.89140E-009	0.00000E+000	-1.90000E-001	8.00223E-005	4	..........a	-327.66
	2654	0.531	-1.59830E-001	-4.65839E-009	0.00000E+000	-1.60000E-001	8.00223E-005	4	..........a	-327.66
	2657	0.5316	-1.29930E-001	-4.42038E-009	0.00000E+000	-1.30000E-001	8.00223E-005	4	..........a	-327.66
	2660	0.5322	-1.00030E-001	-4.18637E-009	0.00000E+000	-1.00000E-001	8.00223E-005	4	..........a	-327.66
	2663	0.5328	-6.99305E-002	-3.94236E-009	0.00000E+000	-7.00000E-002	8.00223E-005	4	..........a	-327.66
	2666	0.5334	-3.99305E-002	-3.69135E-009	0.00000E+000	-4.00000E-002	8.00223E-005	4	..........a	-327.66
	2669	0.534	-9.93048E-003	-3.44334E-009	0.00000E+000	-1.00000E-002	8.00223E-005	4	..........a	-327.66
	2672	0.5346	2.02695E-002	-3.18633E-009	0.00000E+000	2.00000E-002	8.00223E-005	4	..........a	-327.66
	2675	0.5352	5.00695E-002	-2.92332E-009	0.00000E+000	5.00000E-002	8.00223E-005	4	..........a	-327.66
	2678	0.5358	7.99695E-002	-2.65831E-009	0.00000E+000	8.00000E-002	8.00223E-005	4	..........a	-327.66
	2681	0.5364	1.10070E-001	-2.39030E-009	0.00000E+000	1.10000E-001	-3.19978E-004	4	..........a	-327.66
	2684	0.537	1.40070E-001	-2.11629E-009	0.00000E+000	1.40000E-001	8.00223E-005	4	..........a	-327.66
	2687	0.5376	1.70070E-001	-1.83028E-009	0.00000E+000	1.70000E-001	8.00223E-005	4	..........a	-327.66
	2690	0.5382	2.00070E-001	-1.54127E-009	0.00000E+000	2.00000E-001	8.00223E-005	4	..........a	-327.66
	2693	0.5388	2.29920E-001	-1.25026E-009	0.00000E+000	2.30000E-001	8.00223E-005	4	..........a	-327.66
	2696	0.5394	2.60170E-001	-9.44249E-010	0.00000E+000	2.60000E-001	8.00223E-005	4	..........a	-327.66
	2699	0.54	2.89970E-001	-6.28236E-010	0.00000E+000	2.90000E-001	-2.19978E-004	4	..........a	-327.66
	2702	0.5406	3.19920E-001	-3.06224E-010	0.00000E+000	3.20000E-001	8.00223E-005	4	..........a	-327.66
	2705	0.5412	3.49970E-001	2.97888E-011	0.00000E+000	3.50000E-001	8.00223E-005	4	..........a	-327.66
	2708	0.5418	3.80070E-001	3.81802E-010	0.00000E+000	3.80000E-001	8.00223E-005	4	..........a	-327.66
	2711	0.5424	4.09970E-001	7.37816E-010	0.00000E+000	4.10000E-001	8.00223E-005	4	..........a	-327.66
	2714	0.543	4.39970E-001	1.11483E-009	0.00000E+000	4.40000E-001	8.00223E-005	4	..........a	-327.66
	2717	0.5436	4.69770E-001	1.49585E-009	0.00000E+000	4.70000E-001	8.00223E-005	4	..........a	-327.66
	2720	0.5442	4.99970E-001	1.90286E-009	0.00000E+000	5.00000E-001	8.00223E-005	4	..........a	-327.66
	2723	0.5448	5.29869E-001	2.33088E-009	0.00000E+000	5.30000E-001	8.00223E-005	4	..........a	-327.66
	2726	0.5454	5.60070E-001	2.77389E-009	0.00000E+000	5.60000E-001	8.00223E-005	4	..........a	-327.66
	2729	0.546	5.89869E-001	3.23991E-009	0.00000E+000	5.90000E-001	8.00223E-005	4	..........a	-327.66
	2732	0.5466	6.19969E-001	3.74493E-009	0.00000E+000	6.20000E-001	8.00223E-005	4	..........a	-327.66
	2735	0.5472	6.49769E-001	4.26995E-009	0.00000E+000	6.50000E-001	8.00223E-005	4	..........a	-327.66
	2738	0.5478	6.79769E-001	4.82297E-009	0.00000E+000	6.80000E-001	8.00223E-005	4	..........a	-327.66
	2741	0.5484	7.09969E-001	5.42400E-009	0.00000E+000	7.10000E-001	8.00223E-005	4	..........a	-327.66
	2744	0.549	7.39969E-001	6.05702E-009	0.00000E+000	7.40000E-001	8.00223E-005	4	..........a	-327.66
	2747	0.5496	7.69969E-001	6.72705E-009	0.00000E+000	7.70000E-001	8.00223E-005	4	..........a	-327.66
	2750	0.5502	7.99869E-001	7.45607E-009	0.00000E+000	8.00000E-001	8.00223E-005	4	..........a	-327.66
CURVE11	TABLE
	Pt	T	Vf	Im	Vu	Sig	Ach	IERange	Over	Temp
	#	s	V vs. Ref.	A	V	V	V	#	bits	deg C
	2751	0.5504	7.89970E-001	7.58508E-009	0.00000E+000	7.90000E-001	8.00223E-005	4	..........a	-327.66
	2752	0.5506	7.79969E-001	7.67208E-009	0.00000E+000	7.80000E-001	8.00223E-005	4	..........a	-327.66
	2753	0.5508	7.69969E-001	7.73008E-009	0.00000E+000	7.70000E-001	8.00223E-005	4	..........a	-327.66
	2754	0.551	7.60069E-001	7.77209E-009	0.00000E+000	7.60000E-001	8.00223E-005	4	..........a	-327.66
	2755	0.5512	7.49969E-001	7.79809E-009	0.00000E+000	7.50000E-001	8.00223E-005	4	..........a	-327.66
	2756	0.5514	7.39769E-001	7.80809E-009	0.00000E+000	7.40000E-001	8.00223E-005	4	..........a	-327.66
	2757	0.5516	7.29869E-001	7.81009E-009	0.00000E+000	7.30000E-001	8.00223E-005	4	..........a	-327.66
	2758	0.5518	7.19869E-001	7.80209E-009	0.00000E+000	7.20000E-001	8.00223E-005	4	..........a	-327.66
	2759	0.552	7.09870E-001	7.77909E-009	0.00000E+000	7.10000E-001	8.00223E-005	4	..........a	-327.66
	2760	0.5522	6.99869E-001	7.75809E-009	0.00000E+000	7.00000E-001	8.00223E-005	4	..........a	-327.66
	2761	0.5524	6.89869E-001	7.72808E-009	0.00000E+000	6.90000E-001	8.00223E-005	4	..........a	-327.66
	2762	0.5526	6.79969E-001	7.69208E-009	0.00000E+000	6.80000E-001	8.00223E-005	4	..........a	-327.66
	2763	0.5528	6.69869E-001	7.65208E-009	0.00000E+000	6.70000E-001	8.00223E-005	4	..........a	-327.66
	2764	0.553	6.59669E-001	7.61108E-009	0.00000E+000	6.60000E-001	8.00223E-005	4	..........a	-327.66
	2765	0.5532	6.49769E-001	7.56108E-009	0.00000E+000	6.50000E-001	8.00223E-005	4	..........a	-327.66
	2766	0.5534	6.39769E-001	7.50908E-009	0.00000E+000	6.40000E-001	-3.19978E-004	4	..........a	-327.66
	2767	0.5536	6.29969E-001	7.45607E-009	0.00000E+000	6.30000E-001	8.00223E-005	4	..........a	-327.66
	2768	0.5538	6.19869E-001	7.39607E-009	0.00000E+000	6.20000E-001	8.00223E-005	4	..........a	-327.66
	2769	0.554	6.09869E-001	7.34607E-009	0.00000E+000	6.10000E-001	8.00223E-005	4	..........a	-327.66
	2770	0.5542	5.99869E-001	7.28007E-009	0.00000E+000	6.00000E-001	8.00223E-005	4	..........a	-327.66
	2771	0.5544	5.89969E-001	7.21606E-009	0.00000E+000	5.90000E-001	8.00223E-005	4	..........a	-327.66
	2772	0.5546	5.79870E-001	7.15406E-009	0.00000E+000	5.80000E-001	8.00223E-005	4	..........a	-327.66
	2773	0.5548	5.69669E-001	7.08706E-009	0.00000E+000	5.70000E-001	8.00223E-005	4	..........a	-327.66
	2774	0.555	5.60019E-001	7.01406E-009	0.00000E+000	5.60000E-001	8.00223E-005	4	..........a	-327.66
	2775	0.5552	5.49869E-001	6.94605E-009	0.00000E+000	5.50000E-001	8.00223E-005	4	..........a	-327.66
	2776	0.5554	5.39970E-001	6.87405E-009	0.00000E+000	5.40000E-001	8.00223E-005	4	..........a	-327.66
	2777	0.5556	5.30069E-001	6.79805E-009	0.00000E+000	5.30000E-001	8.00223E-005	4	..........a	-327.66
	2778	0.5558	5.19969E-001	6.72405E-009	0.00000E+000	5.20000E-001	-3.19978E-004	4	..........a	-327.66
	2779	0.556	5.09969E-001	6.64904E-009	0.00000E+000	5.10000E-001	8.00223E-005	4	..........a	-327.66
	2780	0.5562	5.00069E-001	6.56904E-009	0.00000E+000	5.00000E-001	8.00223E-005	4	..........a	-327.66
	2781	0.5564	4.90070E-001	6.48904E-009	0.00000E+000	4.90000E-001	8.00223E-005	4	..........a	-327.66
	2782	0.5566	4.79720E-001	6.40403E-009	0.00000E+000	4.80000E-001	8.00223E-005	4	..........a	-327.66
	2783	0.5568	4.69870E-001	6.32403E-009	0.00000E+000	4.70000E-001	8.00223E-005	4	..........a	-327.66
	2784	0.557	4.59970E-001	6.23403E-009	0.00000E+000	4.60000E-001	8.00223E-005	4	..........a	-327.66
	2785	0.5572	4.49670E-001	6.15602E-009	0.00000E+000	4.50000E-001	8.00223E-005	4	..........a	-327.66
	2786	0.5574	4.39670E-001	6.06402E-009	0.00000E+000	4.40000E-001	8.00223E-005	4	..........a	-327.66
	2787	0.5576	4.29870E-001	5.97302E-009	0.00000E+000	4.30000E-001	8.00223E-005	4	..........a	-327.66
	2788	0.5578	4.19970E-001	5.88201E-009	0.00000E+000	4.20000E-001	8.00223E-005	4	..........a	-327.66
	2789	0.558	4.09870E-001	5.79401E-009	0.00000E+000	4.10000E-001	8.00223E-005	4	..........a	-327.66
	2790	0.5582	4.00170E-001	5.70501E-009	0.00000E+000	4.00000E-001	8.00223E-005	4	..........a	-327.66
	2791	0.5584	3.89870E-001	5.59800E-009	0.00000E+000	3.90000E-001	8.00223E-005	4	..........a	-327.66
	2792	0.5586	3.80070E-001	5.50200E-009	0.00000E+000	3.80000E-001	8.00223E-005	4	..........a	-327.66
	2793	0.5588	3.69970E-001	5.40700E-009	0.00000E+000	3.70000E-001	8.00223E-005	4	..........a	-327.66
	2794	0.559	3.60070E-001	5.30599E-009	0.00000E+000	3.60000E-001	8.00223E-005	4	..........a	-327.66
	2795	0.5592	3.50070E-001	5.20099E-009	0.00000E+000	3.50000E-001	8.00223E-005	4	..........a	-327.66
	2796	0.5594	3.40070E-001	5.10098E-009	0.00000E+000	3.40000E-001	8.00223E-005	4	..........a	-327.66
	2797	0.5596	3.29970E-001	4.99698E-009	0.00000E+000	3.30000E-001	8.00223E-005	4	..........a	-327.66
	2798	0.5598	3.19870E-001	4.88898E-009	0.00000E+000	3.20000E-001	8.00223E-005	4	..........a	-327.66