File: example_project/raw_outputs/20240424_C_GM0016_HL03_E01_CV50.DTA
EXPLAIN
TAG	CV
TITLE	LABEL	Cyclic Voltammetry	Test &Identifier
DATE	LABEL	4/24/2024	Date
TIME	LABEL	16:38:07	Time
NOTES	NOTES	1	&Notes...

PSTAT	PSTAT	REF600P-43058	Potentiostat
VINIT	POTEN	0.00000E+000	T	Initial &E (V)
VLIMIT1	POTEN	-6.00000E-001	F	Scan Limit &1 (V)
VLIMIT2	POTEN	8.00000E-001	F	Scan Limit &2 (V)
VFINAL	POTEN	0.00000E+000	T	Final &E (V)
SCANRATE	QUANT	4.99999E+001	&Scan Rate (mV/s)
STEPSIZE	QUANT	1.00000E+001	St&ep Size (mV)
CYCLES	IQUANT	4	C&ycles (#)
IMODE	SELECTOR	0	I/E Range &Mode
IRANGE	QUANT	1.00000E-006	&Max Current (mA)
AREA	QUANT	1.00000E+000	Electrode &Area (cm^2)
ELECTRODETYPE	SELECTOR	0	Electrode Type
STRIPPING	TOGGLE	F	Used for Stripping
POLARITY	TOGGLE	F	Signal Polarity
CONDIT	TWOPARAM	F	1.50000E+001	0.00000E+000	Conditionin&g	Time(s)	E(V)
DELAY	TWOPARAM	T	1.00000E+001	0.00000E+000	Init. De&lay	Time(s)	Stab.(mV/s)
EQDELAY	QUANT	1.00000E+001	Equil. &Time (s)
IRCOMP	SELECTOR	0	IRCom&p
PFCOR	QUANT	5.00000E+001	PF Corr. (ohm)
SAMPLINGMODE	SELECTOR	1	Sampling &Mode
OCVCURVE	TABLE	39
	Pt	T	Vf	Vm	Ach	Over	Temp
	#	s	V vs. Ref.	V	V	bits	deg C
	0	0.258333	-2.38482E-001	-2.38482E-001	2.31926E-004	..........a	-327.66
	1	0.516667	-2.38458E-001	-2.37254E-001	2.22792E-004	..........a	-327.66
	2	0.775	-2.38314E-001	-2.36085E-001	2.27659E-004	..........a	-327.66
	3	1.03333	-2.37906E-001	-2.34961E-001	2.28326E-004	..........a	-327.66
	4	1.29167	-2.37175E-001	-2.33889E-001	2.21992E-004	..........a	-327.66
	5	1.55	-2.36202E-001	-2.32859E-001	2.32392E-004	..........a	-327.66
	6	1.80833	-2.35122E-001	-2.31873E-001	2.32526E-004	..........a	-327.66
	7	2.06667	-2.34033E-001	-2.30921E-001	2.24792E-004	..........a	-327.66
	8	2.325	-2.32983E-001	-2.30006E-001	2.19859E-004	..........a	-327.66
	9	2.58333	-2.31980E-001	-2.29134E-001	2.30126E-004	..........a	-327.66
	10	2.84167	-2.31022E-001	-2.28288E-001	2.22526E-004	..........a	-327.66
	11	3.1	-2.30105E-001	-2.27484E-001	2.32192E-004	..........a	-327.66
	12	3.35833	-2.29225E-001	-2.26708E-001	2.23659E-004	..........a	-327.66
	13	3.61667	-2.28380E-001	-2.25959E-001	2.32726E-004	..........a	-327.66
	14	3.875	-2.27569E-001	-2.25241E-001	2.31392E-004	..........a	-327.66
	15	4.13333	-2.26789E-001	-2.24546E-001	2.23526E-004	..........a	-327.66
	16	4.39167	-2.26038E-001	-2.23882E-001	2.29592E-004	..........a	-327.66
	17	4.65	-2.25316E-001	-2.23226E-001	2.34126E-004	..........a	-327.66
	18	4.90833	-2.24619E-001	-2.22596E-001	2.28392E-004	..........a	-327.66
	19	5.16667	-2.23945E-001	-2.21979E-001	2.27459E-004	..........a	-327.66
	20	5.425	-2.23292E-001	-2.21399E-001	2.22726E-004	..........a	-327.66
	21	5.68333	-2.22659E-001	-2.20819E-001	2.31992E-004	..........a	-327.66
	22	5.94167	-2.22046E-001	-2.20273E-001	2.34526E-004	..........a	-327.66
	23	6.2	-2.21454E-001	-2.19732E-001	2.25126E-004	..........a	-327.66
	24	6.45833	-2.20881E-001	-2.19216E-001	2.21592E-004	..........a	-327.66
	25	6.71667	-2.20326E-001	-2.18712E-001	2.35926E-004	..........a	-327.66
	26	6.975	-2.19788E-001	-2.18225E-001	2.37592E-004	..........a	-327.66
	27	7.23333	-2.19268E-001	-2.17750E-001	2.31392E-004	..........a	-327.66
	28	7.49167	-2.18762E-001	-2.17282E-001	2.20526E-004	..........a	-327.66
	29	7.75	-2.18272E-001	-2.16829E-001	2.24659E-004	..........a	-327.66
	30	8.00833	-2.17794E-001	-2.16390E-001	2.35259E-004	..........a	-327.66
	31	8.26667	-2.17328E-001	-2.15962E-001	2.39259E-004	..........a	-327.66
	32	8.525	-2.16874E-001	-2.15548E-001	2.24126E-004	..........a	-327.66
	33	8.78333	-2.16433E-001	-2.15146E-001	2.33326E-004	..........a	-327.66
	34	9.04167	-2.16005E-001	-2.14746E-001	2.24859E-004	..........a	-327.66
	35	9.3	-2.15588E-001	-2.14362E-001	2.23859E-004	..........a	-327.66
	36	9.5583	-2.15182E-001	-2.13986E-001	2.30459E-004	..........a	-327.66
	37	9.8167	-2.14786E-001	-2.13615E-001	2.29792E-004	..........a	-327.66
	38	10.075	-2.14399E-001	-2.13262E-001	2.29726E-004	..........a	-327.66
EOC	QUANT	-0.2143987	Open Circuit (V)
PSTATMODEL	IQUANT	7	Pstat Model
PSTATSECTION	LABEL	REF600P-43058	Pstat Section
PSTATSERIALNO	LABEL	43058	Pstat Serial Number
CTRLMODE	IQUANT	1	Control Mode
ELECTROMETER	IQUANT	0	RE=0 or CS=1
IESTAB	IQUANT	2	I/E Stability
CASPEED	IQUANT	4	Control Amp Speed
CONVENTION	IQUANT	1	Current Convention
ICHRANGE	IQUANT	2	Ich Range
ICHRANGEMODE	TOGGLE	F	Ich Auto Range
ICHOFFSETENABLE	TOGGLE	F	Ich Offset Enable
ICHOFFSET	QUANT	0	Ich Offset (V)
ICHFILTER	IQUANT	2	Ich Filter
VCHRANGE	IQUANT	2	Vch Range
VCHRANGEMODE	TOGGLE	F	Vch Auto Range
VCHOFFSETENABLE	TOGGLE	F	Vch Offset Enable
VCHOFFSET	QUANT	0	Vch Offset (V)
VCHFILTER	IQUANT	2	Vch Filter
ACHRANGE	IQUANT	2	Ach Range
ACHOFFSETENABLE	TOGGLE	F	Ach Offset Enable
ACHOFFSET	QUANT	0	Ach Offset (V)
ACHFILTER	IQUANT	1	Ach Filter
IERANGELOWERLIMIT	IQUANT	1	I/E Range Lower Limit
IERANGEMODE	TOGGLE	T	I/E AutoRange
IERANGE	IQUANT	3	I/E Range
POSFEEDENABLE	TOGGLE	F	Positive Feedback IR Comp
POSFEEDRESISTANCE	QUANT	0	Positive Feedback Resistance (ohm)
ACHSELECT	IQUANT	4	Ach Select
SENSECABLEID	IQUANT	7	Sense Cable ID
PWRCABLEID	IQUANT	7	Power Cable ID
DCCALDATE	LABEL	3/22/2024	DC Calibration Date
ACCALDATE	LABEL	3/22/2024	AC Calibration Date
THERMOSELECT	IQUANT	1	Thermo Select
FRAMEWORKVERSION	LABEL	7.8.4	Framework Version
INSTRUMENTVERSION	LABEL	4.42	Instrument Version
CURVE1	TABLE
	Pt	T	Vf	Im	Vu	Sig	Ach	IERange	Over	Temp
	#	s	V vs. Ref.	A	V	V	V	#	bits	deg C
	0	0.2	-2.14311E-001	-4.81701E-010	0.00000E+000	-2.14400E-001	9.80892E-004	5	..........a	-327.66
	2	0.6	-2.34273E-001	-4.83976E-009	0.00000E+000	-2.34400E-001	9.78692E-004	5	..........a	-327.66
	4	1	-2.54288E-001	-7.95110E-009	0.00000E+000	-2.54400E-001	9.64792E-004	5	..........a	-327.66
	6	1.4	-2.74259E-001	-1.06637E-008	0.00000E+000	-2.74400E-001	9.73992E-004	5	..........a	-327.66
	8	1.8	-2.94290E-001	-1.31371E-008	0.00000E+000	-2.94400E-001	9.80692E-004	5	..........a	-327.66
	10	2.2	-3.14256E-001	-1.55193E-008	0.00000E+000	-3.14400E-001	9.78992E-004	5	..........a	-327.66
	12	2.6	-3.34388E-001	-1.77896E-008	0.00000E+000	-3.34400E-001	9.89392E-004	5	..........a	-327.66
	14	3	-3.54254E-001	-2.00289E-008	0.00000E+000	-3.54400E-001	9.77292E-004	5	..........a	-327.66
	16	3.4	-3.74280E-001	-2.22456E-008	0.00000E+000	-3.74400E-001	9.77292E-004	5	..........a	-327.66
	18	3.8	-3.94248E-001	-2.44662E-008	0.00000E+000	-3.94400E-001	9.71692E-004	5	..........a	-327.66
	20	4.2	-4.14263E-001	-2.67570E-008	0.00000E+000	-4.14400E-001	9.95292E-004	5	..........a	-327.66
	22	4.6	-4.34225E-001	-2.90859E-008	0.00000E+000	-4.34400E-001	9.71992E-004	5	..........a	-327.66
	24	5	-4.54261E-001	-3.15140E-008	0.00000E+000	-4.54400E-001	9.72992E-004	5	..........a	-327.66
	26	5.4	-4.74232E-001	-3.39803E-008	0.00000E+000	-4.74400E-001	9.81992E-004	5	..........a	-327.66
	28	5.8	-4.94246E-001	-3.65427E-008	0.00000E+000	-4.94400E-001	9.70292E-004	5	..........a	-327.66
	30	6.2	-5.14195E-001	-3.91704E-008	0.00000E+000	-5.14400E-001	9.76592E-004	5	..........a	-327.66
	32	6.6	-5.34287E-001	-4.19350E-008	0.00000E+000	-5.34400E-001	9.85792E-004	5	..........a	-327.66
	34	7	-5.54227E-001	-4.47364E-008	0.00000E+000	-5.54400E-001	9.72792E-004	5	..........a	-327.66
	36	7.4	-5.74200E-001	-4.76382E-008	0.00000E+000	-5.74400E-001	9.80192E-004	5	..........a	-327.66
	38	7.8	-5.94173E-001	-5.07092E-008	0.00000E+000	-5.94400E-001	9.80592E-004	5	..........a	-327.66
	40	8.2	-5.94171E-001	-4.45056E-008	0.00000E+000	-5.94400E-001	9.70492E-004	5	..........a	-327.66
	42	8.6	-5.74274E-001	-3.59591E-008	0.00000E+000	-5.74400E-001	9.66592E-004	5	..........a	-327.66
	44	9	-5.54238E-001	-3.01586E-008	0.00000E+000	-5.54400E-001	9.74292E-004	5	..........a	-327.66
	46	9.4	-5.34271E-001	-2.55754E-008	0.00000E+000	-5.34400E-001	9.89592E-004	5	..........a	-327.66
	48	9.8	-5.14208E-001	-2.16680E-008	0.00000E+000	-5.14400E-001	9.78092E-004	5	..........a	-327.66
	50	10.2	-4.94249E-001	-1.82198E-008	0.00000E+000	-4.94400E-001	9.84192E-004	5	..........a	-327.66
	52	10.6	-4.74240E-001	-1.50503E-008	0.00000E+000	-4.74400E-001	9.71892E-004	5	..........a	-327.66
	54	11	-4.54285E-001	-1.22057E-008	0.00000E+000	-4.54400E-001	9.99592E-004	5	..........a	-327.66
	56	11.4	-4.34235E-001	-9.57989E-009	0.00000E+000	-4.34400E-001	9.67892E-004	5	..........a	-327.66
	58	11.8	-4.14307E-001	-7.03482E-009	0.00000E+000	-4.14400E-001	9.86792E-004	5	..........a	-327.66
	60	12.2	-3.94264E-001	-4.67671E-009	0.00000E+000	-3.94400E-001	9.85092E-004	5	..........a	-327.66
	62	12.6	-3.74293E-001	-2.43980E-009	0.00000E+000	-3.74400E-001	9.99492E-004	5	..........a	-327.66
	64	13	-3.54298E-001	-3.18125E-010	0.00000E+000	-3.54400E-001	9.84692E-004	5	..........a	-327.66
	66	13.4	-3.34348E-001	1.77362E-009	0.00000E+000	-3.34400E-001	9.90092E-004	5	..........a	-327.66
	68	13.8	-3.14270E-001	3.74933E-009	0.00000E+000	-3.14400E-001	9.74192E-004	5	..........a	-327.66
	70	14.2	-2.94275E-001	5.64495E-009	0.00000E+000	-2.94400E-001	9.98192E-004	5	..........a	-327.66
	72	14.6	-2.74307E-001	7.51492E-009	0.00000E+000	-2.74400E-001	9.89592E-004	5	..........a	-327.66
	74	15	-2.54355E-001	9.31264E-009	0.00000E+000	-2.54400E-001	9.81292E-004	5	..........a	-327.66
	76	15.4	-2.34264E-001	1.10560E-008	0.00000E+000	-2.34400E-001	9.80692E-004	5	..........a	-327.66
	78	15.8	-2.14385E-001	1.27654E-008	0.00000E+000	-2.14400E-001	9.94592E-004	5	..........a	-327.66
	80	16.2	-1.94327E-001	1.44542E-008	0.00000E+000	-1.94400E-001	9.75592E-004	5	..........a	-327.66
	82	16.6	-1.74366E-001	1.61138E-008	0.00000E+000	-1.74400E-001	9.97192E-004	5	..........a	-327.66
	84	17	-1.54328E-001	1.77714E-008	0.00000E+000	-1.54400E-001	9.87092E-004	5	..........a	-327.66
	86	17.4	-1.34412E-001	1.94005E-008	0.00000E+000	-1.34400E-001	9.83392E-004	5	..........a	-327.66
	88	17.8	-1.14367E-001	2.10294E-008	0.00000E+000	-1.14400E-001	9.76492E-004	5	..........a	-327.66
	90	18.2	-9.43335E-002	2.26440E-008	0.00000E+000	-9.44000E-002	9.87992E-004	5	..........a	-327.66
	92	18.6	-7.43165E-002	2.42579E-008	0.00000E+000	-7.44000E-002	9.85292E-004	5	..........a	-327.66
	94	19	-5.44054E-002	2.58732E-008	0.00000E+000	-5.44000E-002	1.00039E-003	5	..........a	-327.66
	96	19.4	-3.43190E-002	2.75001E-008	0.00000E+000	-3.44000E-002	9.87192E-004	5	..........a	-327.66
	98	19.8	-1.43427E-002	2.91616E-008	0.00000E+000	-1.44000E-002	9.81492E-004	5	..........a	-327.66
	100	20.2	5.69279E-003	3.08349E-008	0.00000E+000	5.60001E-003	9.74792E-004	5	..........a	-327.66
	102	20.6	2.56047E-002	3.26390E-008	0.00000E+000	2.56000E-002	9.86492E-004	5	..........a	-327.66
	104	21	4.57384E-002	3.44909E-008	0.00000E+000	4.56000E-002	9.82492E-004	5	..........a	-327.66
	106	21.4	6.56191E-002	3.64798E-008	0.00000E+000	6.56000E-002	9.74592E-004	5	..........a	-327.66
	108	21.8	8.56594E-002	3.86633E-008	0.00000E+000	8.56000E-002	1.00179E-003	5	..........a	-327.66
	110	22.2	1.05621E-001	4.11274E-008	0.00000E+000	1.05600E-001	9.84792E-004	5	..........a	-327.66
	112	22.6	1.25678E-001	4.38565E-008	0.00000E+000	1.25600E-001	9.86392E-004	5	..........a	-327.66
	114	23	1.45626E-001	4.66871E-008	0.00000E+000	1.45600E-001	9.84692E-004	5	..........a	-327.66
	116	23.4	1.65653E-001	4.94804E-008	0.00000E+000	1.65600E-001	9.65392E-004	5	..........a	-327.66
	118	23.8	1.85607E-001	5.22602E-008	0.00000E+000	1.85600E-001	9.82992E-004	5	..........a	-327.66
	120	24.2	2.05598E-001	5.51841E-008	0.00000E+000	2.05600E-001	9.82492E-004	5	..........a	-327.66
	122	24.6	2.25569E-001	5.81646E-008	0.00000E+000	2.25600E-001	9.96892E-004	5	..........a	-327.66
	124	25	2.45512E-001	6.11160E-008	0.00000E+000	2.45600E-001	9.80592E-004	5	..........a	-327.66
	126	25.4	2.65575E-001	6.39449E-008	0.00000E+000	2.65600E-001	1.00029E-003	5	..........a	-327.66
	128	25.8	2.85608E-001	6.66082E-008	0.00000E+000	2.85600E-001	9.74792E-004	5	..........a	-327.66
	130	26.2	3.05539E-001	6.91671E-008	0.00000E+000	3.05600E-001	9.86792E-004	5	..........a	-327.66
	132	26.6	3.25625E-001	7.17792E-008	0.00000E+000	3.25600E-001	9.82992E-004	5	..........a	-327.66
	134	27	3.45600E-001	7.47312E-008	0.00000E+000	3.45600E-001	9.83692E-004	5	..........a	-327.66
	136	27.4	3.65633E-001	7.80823E-008	0.00000E+000	3.65600E-001	9.77692E-004	5	..........a	-327.66
	138	27.8	3.85563E-001	8.16372E-008	0.00000E+000	3.85600E-001	9.91892E-004	5	..........a	-327.66
	140	28.2	4.05615E-001	8.54762E-008	0.00000E+000	4.05600E-001	9.68792E-004	5	..........a	-327.66
	142	28.6	4.25492E-001	8.95841E-008	0.00000E+000	4.25600E-001	9.75592E-004	5	..........a	-327.66
	144	29	4.45565E-001	9.41444E-008	0.00000E+000	4.45600E-001	9.95892E-004	5	..........a	-327.66
	146	29.4	4.65525E-001	9.81312E-008	0.00000E+000	4.65600E-001	9.86092E-004	5	..........a	-327.66
	148	29.8	4.85533E-001	1.01913E-007	0.00000E+000	4.85600E-001	9.78692E-004	5	..........a	-327.66
	150	30.2	5.05492E-001	1.05678E-007	0.00000E+000	5.05600E-001	1.00479E-003	5	..........a	-327.66
	152	30.6	5.25612E-001	1.09401E-007	0.00000E+000	5.25600E-001	9.78992E-004	5	..........a	-327.66
	154	31	5.45522E-001	1.13145E-007	0.00000E+000	5.45600E-001	9.72692E-004	5	..........a	-327.66
	156	31.4	5.65531E-001	1.16923E-007	0.00000E+000	5.65600E-001	9.78192E-004	5	..........a	-327.66
	158	31.8	5.85510E-001	1.20815E-007	0.00000E+000	5.85600E-001	9.94192E-004	5	..........a	-327.66
	160	32.2	6.05549E-001	1.24851E-007	0.00000E+000	6.05600E-001	9.73592E-004	5	..........a	-327.66
	162	32.6	6.25480E-001	1.28969E-007	0.00000E+000	6.25600E-001	9.98292E-004	5	..........a	-327.66
	164	33	6.45484E-001	1.33149E-007	0.00000E+000	6.45600E-001	9.85392E-004	5	..........a	-327.66
	166	33.4	6.65470E-001	1.37388E-007	0.00000E+000	6.65600E-001	9.84492E-004	5	..........a	-327.66
	168	33.8	6.85481E-001	1.41916E-007	0.00000E+000	6.85600E-001	9.73192E-004	5	..........a	-327.66
	170	34.2	7.05487E-001	1.47010E-007	0.00000E+000	7.05600E-001	9.86192E-004	5	..........a	-327.66
	172	34.6	7.25479E-001	1.52753E-007	0.00000E+000	7.25600E-001	9.72492E-004	5	..........a	-327.66
	174	35	7.45468E-001	1.59106E-007	0.00000E+000	7.45600E-001	1.01469E-003	5	..........a	-327.66
	176	35.4	7.65482E-001	1.66168E-007	0.00000E+000	7.65600E-001	9.64192E-004	5	..........a	-327.66
	178	35.8	7.85462E-001	1.74017E-007	0.00000E+000	7.85600E-001	9.66992E-004	5	..........a	-327.66
	179	36	7.95463E-001	1.78343E-007	0.00000E+000	7.95600E-001	9.90592E-004	5	..........a	-327.66
CURVE2	TABLE
	Pt	T	Vf	Im	Vu	Sig	Ach	IERange	Over	Temp
	#	s	V vs. Ref.	A	V	V	V	#	bits	deg C
	180	36.2	7.89967E-001	1.54167E-007	0.00000E+000	7.90000E-001	9.97792E-004	5	..........a	-327.66
	183	36.8	7.59870E-001	1.05669E-007	0.00000E+000	7.60000E-001	9.97292E-004	5	..........a	-327.66
	186	37.4	7.29931E-001	8.36144E-008	0.00000E+000	7.30000E-001	9.83292E-004	5	..........a	-327.66
	189	38	6.99917E-001	7.02015E-008	0.00000E+000	7.00000E-001	9.91792E-004	5	..........a	-327.66
	192	38.6	6.69979E-001	6.05481E-008	0.00000E+000	6.70000E-001	9.92292E-004	5	..........a	-327.66
	195	39.2	6.39882E-001	5.28675E-008	0.00000E+000	6.40000E-001	9.87892E-004	5	..........a	-327.66
	198	39.8	6.09952E-001	4.64209E-008	0.00000E+000	6.10000E-001	9.81192E-004	5	..........a	-327.66
	201	40.4	5.80001E-001	4.08855E-008	0.00000E+000	5.80000E-001	9.65892E-004	5	..........a	-327.66
	204	41	5.50033E-001	3.60725E-008	0.00000E+000	5.50000E-001	9.99592E-004	5	..........a	-327.66
	207	41.6	5.19982E-001	3.17056E-008	0.00000E+000	5.20000E-001	9.78292E-004	5	..........a	-327.66
	210	42.2	4.89940E-001	2.77107E-008	0.00000E+000	4.90000E-001	9.84992E-004	5	..........a	-327.66
	213	42.8	4.59991E-001	2.38946E-008	0.00000E+000	4.60000E-001	9.85892E-004	5	..........a	-327.66
	216	43.4	4.29993E-001	2.00155E-008	0.00000E+000	4.30000E-001	9.94692E-004	5	..........a	-327.66
	219	44	4.00016E-001	1.62568E-008	0.00000E+000	4.00000E-001	9.92492E-004	5	..........a	-327.66
	222	44.6	3.70024E-001	1.25207E-008	0.00000E+000	3.70000E-001	9.85592E-004	5	..........a	-327.66
	225	45.2	3.40070E-001	8.79918E-009	0.00000E+000	3.40000E-001	9.88092E-004	5	..........a	-327.66
	228	45.8	3.10024E-001	4.96508E-009	0.00000E+000	3.10000E-001	9.99892E-004	5	..........a	-327.66
	231	46.4	2.79959E-001	8.95870E-010	0.00000E+000	2.80000E-001	9.90392E-004	5	..........a	-327.66
	234	47	2.50072E-001	-3.73508E-009	0.00000E+000	2.50000E-001	9.81592E-004	5	..........a	-327.66
	237	47.6	2.20029E-001	-8.78452E-009	0.00000E+000	2.20000E-001	9.84392E-004	5	..........a	-327.66
	240	48.2	1.90120E-001	-1.39465E-008	0.00000E+000	1.90000E-001	9.88492E-004	5	..........a	-327.66
	243	48.8	1.60049E-001	-1.78473E-008	0.00000E+000	1.60000E-001	9.89292E-004	5	..........a	-327.66
	246	49.4	1.30094E-001	-1.95226E-008	0.00000E+000	1.30000E-001	9.95692E-004	5	..........a	-327.66
	249	50	1.00127E-001	-1.91721E-008	0.00000E+000	1.00000E-001	9.93492E-004	5	..........a	-327.66
	252	50.6	7.00211E-002	-1.81848E-008	0.00000E+000	7.00000E-002	9.98392E-004	5	..........a	-327.66
	255	51.2	4.00384E-002	-1.78327E-008	0.00000E+000	4.00000E-002	9.92592E-004	5	..........a	-327.66
	258	51.8	1.01163E-002	-1.85227E-008	0.00000E+000	1.00000E-002	9.94192E-004	5	..........a	-327.66
	261	52.4	-1.99011E-002	-1.98757E-008	0.00000E+000	-2.00000E-002	9.70892E-004	5	..........a	-327.66
	264	53	-4.99052E-002	-2.16466E-008	0.00000E+000	-5.00000E-002	9.83592E-004	5	..........a	-327.66
	267	53.6	-7.99444E-002	-2.35539E-008	0.00000E+000	-8.00000E-002	9.94792E-004	5	..........a	-327.66
	270	54.2	-1.09946E-001	-2.58063E-008	0.00000E+000	-1.10000E-001	9.94992E-004	5	..........a	-327.66
[...]
	917	183.6	-2.19889E-001	9.74990E-009	0.00000E+000	-2.20000E-001	9.78792E-004	5	..........a	-327.66
	920	184.2	-1.90060E-001	1.28174E-008	0.00000E+000	-1.90000E-001	9.75992E-004	5	..........a	-327.66
	923	184.8	-1.59971E-001	1.58623E-008	0.00000E+000	-1.60000E-001	9.76592E-004	5	..........a	-327.66
	926	185.4	-1.29958E-001	1.88472E-008	0.00000E+000	-1.30000E-001	9.83392E-004	5	..........a	-327.66
	929	186	-9.99210E-002	2.17935E-008	0.00000E+000	-1.00000E-001	9.60492E-004	5	..........a	-327.66
	932	186.6	-6.99357E-002	2.47247E-008	0.00000E+000	-7.00000E-002	9.82992E-004	5	..........a	-327.66
	935	187.2	-3.99396E-002	2.75864E-008	0.00000E+000	-4.00000E-002	9.75392E-004	5	..........a	-327.66
	938	187.8	-9.89766E-003	3.04235E-008	0.00000E+000	-1.00000E-002	9.83892E-004	5	..........a	-327.66
	941	188.4	2.00514E-002	3.32399E-008	0.00000E+000	2.00000E-002	1.00139E-003	5	..........a	-327.66
	944	189	5.00516E-002	3.61528E-008	0.00000E+000	5.00000E-002	9.77392E-004	5	..........a	-327.66
	947	189.6	7.99966E-002	3.92274E-008	0.00000E+000	8.00000E-002	9.90492E-004	5	..........a	-327.66
	950	190.2	1.10085E-001	4.24173E-008	0.00000E+000	1.10000E-001	9.93592E-004	5	..........a	-327.66
	953	190.8	1.40088E-001	4.55464E-008	0.00000E+000	1.40000E-001	9.57992E-004	5	..........a	-327.66
	956	191.4	1.70021E-001	4.85556E-008	0.00000E+000	1.70000E-001	9.87192E-004	5	..........a	-327.66
	959	192	2.00017E-001	5.16148E-008	0.00000E+000	2.00000E-001	9.68592E-004	5	..........a	-327.66
	962	192.6	2.29977E-001	5.44611E-008	0.00000E+000	2.30000E-001	9.97592E-004	5	..........a	-327.66
	965	193.2	2.60008E-001	5.68703E-008	0.00000E+000	2.60000E-001	9.78992E-004	5	..........a	-327.66
	968	193.8	2.89990E-001	5.93480E-008	0.00000E+000	2.90000E-001	9.75692E-004	5	..........a	-327.66
	971	194.4	3.20022E-001	6.22054E-008	0.00000E+000	3.20000E-001	9.82892E-004	5	..........a	-327.66
	974	195	3.50006E-001	6.52165E-008	0.00000E+000	3.50000E-001	9.99792E-004	5	..........a	-327.66
	977	195.6	3.80007E-001	6.84426E-008	0.00000E+000	3.80000E-001	9.73792E-004	5	..........a	-327.66
	980	196.2	4.09945E-001	7.17595E-008	0.00000E+000	4.10000E-001	9.92192E-004	5	..........a	-327.66
	983	196.8	4.39939E-001	7.54888E-008	0.00000E+000	4.40000E-001	9.70192E-004	5	..........a	-327.66
	986	197.4	4.69991E-001	7.94634E-008	0.00000E+000	4.70000E-001	9.78392E-004	5	..........a	-327.66
	989	198	4.99981E-001	8.35943E-008	0.00000E+000	5.00000E-001	9.70192E-004	5	..........a	-327.66
	992	198.6	5.29944E-001	8.76393E-008	0.00000E+000	5.30000E-001	9.84492E-004	5	..........a	-327.66
	995	199.2	5.59924E-001	9.15695E-008	0.00000E+000	5.60000E-001	9.92692E-004	5	..........a	-327.66
	998	199.8	5.89981E-001	9.54500E-008	0.00000E+000	5.90000E-001	9.73392E-004	5	..........a	-327.66
	1001	200.4	6.19905E-001	9.95171E-008	0.00000E+000	6.20000E-001	9.86792E-004	5	..........a	-327.66
	1004	201	6.49904E-001	1.04033E-007	0.00000E+000	6.50000E-001	9.74492E-004	5	..........a	-327.66
	1007	201.6	6.79884E-001	1.09099E-007	0.00000E+000	6.80000E-001	9.54692E-004	5	..........a	-327.66
	1010	202.2	7.09964E-001	1.14996E-007	0.00000E+000	7.10000E-001	9.72792E-004	5	..........a	-327.66
	1013	202.8	7.39889E-001	1.22327E-007	0.00000E+000	7.40000E-001	9.67292E-004	5	..........a	-327.66
	1016	203.4	7.69898E-001	1.32019E-007	0.00000E+000	7.70000E-001	9.76292E-004	5	..........a	-327.66
	1019	204	7.99865E-001	1.46242E-007	0.00000E+000	8.00000E-001	9.80392E-004	5	..........a	-327.66
CURVE5	TABLE
	Pt	T	Vf	Im	Vu	Sig	Ach	IERange	Over	Temp
	#	s	V vs. Ref.	A	V	V	V	#	bits	deg C
	1020	204.2	7.89967E-001	1.20974E-007	0.00000E+000	7.90000E-001	9.89792E-004	5	..........a	-327.66
	1022	204.6	7.69916E-001	9.40868E-008	0.00000E+000	7.70000E-001	9.89592E-004	5	..........a	-327.66
	1024	205	7.49986E-001	7.89138E-008	0.00000E+000	7.50000E-001	9.86092E-004	5	..........a	-327.66
	1026	205.4	7.29894E-001	6.88683E-008	0.00000E+000	7.30000E-001	9.78392E-004	5	..........a	-327.66
	1028	205.8	7.09982E-001	6.18015E-008	0.00000E+000	7.10000E-001	9.87092E-004	5	..........a	-327.66
	1030	206.2	6.89931E-001	5.55180E-008	0.00000E+000	6.90000E-001	9.73592E-004	5	..........a	-327.66
	1032	206.6	6.69976E-001	5.05376E-008	0.00000E+000	6.70000E-001	9.76892E-004	5	..........a	-327.66
	1034	207	6.49946E-001	4.61551E-008	0.00000E+000	6.50000E-001	9.81692E-004	5	..........a	-327.66
	1036	207.4	6.30046E-001	4.22409E-008	0.00000E+000	6.30000E-001	9.67492E-004	5	..........a	-327.66
	1038	207.8	6.09950E-001	3.87321E-008	0.00000E+000	6.10000E-001	9.87692E-004	5	..........a	-327.66
	1040	208.2	5.90039E-001	3.55684E-008	0.00000E+000	5.90000E-001	9.72492E-004	5	..........a	-327.66
	1042	208.6	5.69945E-001	3.31313E-008	0.00000E+000	5.70000E-001	9.89692E-004	5	..........a	-327.66
	1044	209	5.50025E-001	3.03075E-008	0.00000E+000	5.50000E-001	9.74192E-004	5	..........a	-327.66
	1046	209.4	5.29989E-001	2.72663E-008	0.00000E+000	5.30000E-001	9.71892E-004	5	..........a	-327.66
	1048	209.8	5.09981E-001	2.48766E-008	0.00000E+000	5.10000E-001	9.81892E-004	5	..........a	-327.66
	1050	210.2	4.89937E-001	2.38330E-008	0.00000E+000	4.90000E-001	9.78992E-004	5	..........a	-327.66
	1052	210.6	4.70029E-001	2.15764E-008	0.00000E+000	4.70000E-001	9.73192E-004	5	..........a	-327.66
	1054	211	4.50048E-001	1.89422E-008	0.00000E+000	4.50000E-001	9.72192E-004	5	..........a	-327.66
	1056	211.4	4.30022E-001	1.64408E-008	0.00000E+000	4.30000E-001	9.79592E-004	5	..........a	-327.66
	1058	211.8	4.09951E-001	1.36075E-008	0.00000E+000	4.10000E-001	9.86092E-004	5	..........a	-327.66
	1060	212.2	3.90045E-001	1.09327E-008	0.00000E+000	3.90000E-001	9.82692E-004	5	..........a	-327.66
	1062	212.6	3.70019E-001	8.52345E-009	0.00000E+000	3.70000E-001	9.69992E-004	5	..........a	-327.66
	1064	213	3.50028E-001	6.03743E-009	0.00000E+000	3.50000E-001	9.81992E-004	5	..........a	-327.66
	1066	213.4	3.30008E-001	3.80563E-009	0.00000E+000	3.30000E-001	9.87492E-004	5	..........a	-327.66
	1068	213.8	3.10018E-001	1.33429E-009	0.00000E+000	3.10000E-001	9.90892E-004	5	..........a	-327.66
	1070	214.2	2.90009E-001	-1.47399E-009	0.00000E+000	2.90000E-001	9.73392E-004	5	..........a	-327.66
	1072	214.6	2.70091E-001	-4.51076E-009	0.00000E+000	2.70000E-001	9.49992E-004	5	..........a	-327.66
	1074	215	2.50012E-001	-7.82439E-009	0.00000E+000	2.50000E-001	9.58692E-004	5	..........a	-327.66
	1076	215.4	2.30026E-001	-1.14735E-008	0.00000E+000	2.30000E-001	9.96092E-004	5	..........a	-327.66
	1078	215.8	2.10050E-001	-1.52511E-008	0.00000E+000	2.10000E-001	9.67592E-004	5	..........a	-327.66
	1080	216.2	1.90119E-001	-1.88572E-008	0.00000E+000	1.90000E-001	9.81792E-004	5	..........a	-327.66
	1082	216.6	1.70074E-001	-2.18933E-008	0.00000E+000	1.70000E-001	9.73792E-004	5	..........a	-327.66
	1084	217	1.50089E-001	-2.38187E-008	0.00000E+000	1.50000E-001	9.72692E-004	5	..........a	-327.66
	1086	217.4	1.30096E-001	-2.46085E-008	0.00000E+000	1.30000E-001	9.72592E-004	5	..........a	-327.66
	1088	217.8	1.10129E-001	-2.44173E-008	0.00000E+000	1.10000E-001	9.71992E-004	5	..........a	-327.66
	1090	218.2	9.01031E-002	-2.35848E-008	0.00000E+000	9.00000E-002	9.76892E-004	5	..........a	-327.66
	1092	218.6	7.00292E-002	-2.25184E-008	0.00000E+000	7.00000E-002	9.91392E-004	5	..........a	-327.66
	1094	219	5.00614E-002	-2.17832E-008	0.00000E+000	5.00000E-002	9.79592E-004	5	..........a	-327.66
	1096	219.4	3.00782E-002	-2.15963E-008	0.00000E+000	3.00000E-002	9.64392E-004	5	..........a	-327.66
	1098	219.8	1.01101E-002	-2.19060E-008	0.00000E+000	1.00000E-002	9.69792E-004	5	..........a	-327.66
	1100	220.2	-9.88791E-003	-2.26385E-008	0.00000E+000	-1.00000E-002	9.77192E-004	5	..........a	-327.66
	1102	220.6	-2.99288E-002	-2.37284E-008	0.00000E+000	-3.00000E-002	9.81992E-004	5	..........a	-327.66
	1104	221	-4.98795E-002	-2.50902E-008	0.00000E+000	-5.00000E-002	9.78892E-004	5	..........a	-327.66
	1106	221.4	-6.99042E-002	-2.66562E-008	0.00000E+000	-7.00000E-002	9.71592E-004	5	..........a	-327.66
	1108	221.8	-8.99061E-002	-2.83273E-008	0.00000E+000	-9.00000E-002	9.74992E-004	5	..........a	-327.66
	1110	222.2	-1.09927E-001	-3.00427E-008	0.00000E+000	-1.10000E-001	9.77292E-004	5	..........a	-327.66
	1112	222.6	-1.29912E-001	-3.17319E-008	0.00000E+000	-1.30000E-001	9.77192E-004	5	..........a	-327.66
	1114	223	-1.49950E-001	-3.34061E-008	0.00000E+000	-1.50000E-001	9.65692E-004	5	..........a	-327.66
	1116	223.4	-1.69877E-001	-3.50409E-008	0.00000E+000	-1.70000E-001	9.71392E-004	5	..........a	-327.66
	1118	223.8	-1.89907E-001	-3.67461E-008	0.00000E+000	-1.90000E-001	9.79092E-004	5	..........a	-327.66
	1120	224.2	-2.09899E-001	-3.84691E-008	0.00000E+000	-2.10000E-001	9.85692E-004	5	..........a	-327.66