File: example_project/raw_outputs/20240509_ZZZK_GM0016_HL03_E16_CV50.DTA
EXPLAIN
TAG	CV
TITLE	LABEL	Cyclic Voltammetry	Test &Identifier
DATE	LABEL	5/9/2024	Date
TIME	LABEL	15:49:56	Time
NOTES	NOTES	1	&Notes...

PSTAT	PSTAT	REF600P-43058	Potentiostat
VINIT	POTEN	0.00000E+000	T	Initial &E (V)
VLIMIT1	POTEN	8.00000E-001	F	Scan Limit &1 (V)
VLIMIT2	POTEN	-6.00000E-001	F	Scan Limit &2 (V)
VFINAL	POTEN	0.00000E+000	T	Final &E (V)
SCANRATE	QUANT	4.99999E+001	&Scan Rate (mV/s)
STEPSIZE	QUANT	1.00000E+001	St&ep Size (mV)
CYCLES	IQUANT	4	C&ycles (#)
IMODE	SELECTOR	0	I/E Range &Mode
IRANGE	QUANT	1.00000E-005	&Max Current (mA)
AREA	QUANT	1.00000E+000	Electrode &Area (cm^2)
ELECTRODETYPE	SELECTOR	0	Electrode Type
STRIPPING	TOGGLE	F	Used for Stripping
POLARITY	TOGGLE	F	Signal Polarity
CONDIT	TWOPARAM	F	1.50000E+001	0.00000E+000	Conditionin&g	Time(s)	E(V)
DELAY	TWOPARAM	T	1.00000E+001	0.00000E+000	Init. De&lay	Time(s)	Stab.(mV/s)
EQDELAY	QUANT	1.00000E+001	Equil. &Time (s)
IRCOMP	SELECTOR	0	IRCom&p
PFCOR	QUANT	5.00000E+001	PF Corr. (ohm)
SAMPLINGMODE	SELECTOR	1	Sampling &Mode
OCVCURVE	TABLE	39
	Pt	T	Vf	Vm	Ach	Over	Temp
	#	s	V vs. Ref.	V	V	bits	deg C
	0	0.258333	-1.69904E-001	-1.69904E-001	2.27526E-004	..........a	-327.66
	1	0.516667	-1.69909E-001	-1.70191E-001	2.25992E-004	..........a	-327.66
	2	0.775	-1.69940E-001	-1.70288E-001	2.40259E-004	..........a	-327.66
	3	1.03333	-1.70019E-001	-1.70602E-001	2.26259E-004	..........a	-327.66
	4	1.29167	-1.70157E-001	-1.70897E-001	2.31059E-004	..........a	-327.66
	5	1.55	-1.70352E-001	-1.71200E-001	2.38526E-004	..........a	-327.66
	6	1.80833	-1.70597E-001	-1.71498E-001	2.16726E-004	..........a	-327.66
	7	2.06667	-1.70874E-001	-1.71751E-001	2.20926E-004	..........a	-327.66
	8	2.325	-1.71165E-001	-1.72051E-001	2.27659E-004	..........a	-327.66
	9	2.58333	-1.71454E-001	-1.72267E-001	2.39059E-004	..........a	-327.66
	10	2.84167	-1.71735E-001	-1.72566E-001	2.35726E-004	..........a	-327.66
	11	3.1	-1.72007E-001	-1.72874E-001	2.34392E-004	..........a	-327.66
	12	3.35833	-1.72278E-001	-1.73156E-001	2.39726E-004	..........a	-327.66
	13	3.61667	-1.72557E-001	-1.73441E-001	2.39059E-004	..........a	-327.66
	14	3.875	-1.72842E-001	-1.73701E-001	2.31659E-004	..........a	-327.66
	15	4.13333	-1.73128E-001	-1.73990E-001	2.26192E-004	..........a	-327.66
	16	4.39167	-1.73410E-001	-1.74273E-001	2.37459E-004	..........a	-327.66
	17	4.65	-1.73690E-001	-1.74549E-001	2.28992E-004	..........a	-327.66
	18	4.90833	-1.73969E-001	-1.74817E-001	2.28792E-004	..........a	-327.66
	19	5.16667	-1.74247E-001	-1.75077E-001	2.32859E-004	..........a	-327.66
	20	5.425	-1.74522E-001	-1.75343E-001	2.22992E-004	..........a	-327.66
	21	5.68333	-1.74791E-001	-1.75595E-001	2.33792E-004	..........a	-327.66
	22	5.94167	-1.75056E-001	-1.75850E-001	2.35459E-004	..........a	-327.66
	23	6.2	-1.75317E-001	-1.76102E-001	2.39992E-004	..........a	-327.66
	24	6.45833	-1.75574E-001	-1.76336E-001	2.35259E-004	..........a	-327.66
	25	6.71667	-1.75827E-001	-1.76584E-001	2.29326E-004	..........a	-327.66
	26	6.975	-1.76076E-001	-1.76830E-001	2.43126E-004	..........a	-327.66
	27	7.23333	-1.76322E-001	-1.77079E-001	2.34459E-004	..........a	-327.66
	28	7.49167	-1.76567E-001	-1.77324E-001	2.33326E-004	..........a	-327.66
	29	7.75	-1.76812E-001	-1.77575E-001	2.43726E-004	..........a	-327.66
	30	8.00833	-1.77059E-001	-1.77800E-001	2.42726E-004	..........a	-327.66
	31	8.26667	-1.77304E-001	-1.78017E-001	2.38659E-004	..........a	-327.66
	32	8.525	-1.77543E-001	-1.78253E-001	2.43392E-004	..........a	-327.66
	33	8.78333	-1.77777E-001	-1.78496E-001	2.38592E-004	..........a	-327.66
	34	9.04167	-1.78009E-001	-1.78736E-001	2.38459E-004	..........a	-327.66
	35	9.3	-1.78241E-001	-1.78960E-001	2.38859E-004	..........a	-327.66
	36	9.5583	-1.78475E-001	-1.79154E-001	2.49459E-004	..........a	-327.66
	37	9.8167	-1.78706E-001	-1.79390E-001	2.35326E-004	..........a	-327.66
	38	10.075	-1.78931E-001	-1.79640E-001	2.30326E-004	..........a	-327.66
EOC	QUANT	-0.1789312	Open Circuit (V)
PSTATMODEL	IQUANT	7	Pstat Model
PSTATSECTION	LABEL	REF600P-43058	Pstat Section
PSTATSERIALNO	LABEL	43058	Pstat Serial Number
CTRLMODE	IQUANT	1	Control Mode
ELECTROMETER	IQUANT	0	RE=0 or CS=1
IESTAB	IQUANT	2	I/E Stability
CASPEED	IQUANT	4	Control Amp Speed
CONVENTION	IQUANT	1	Current Convention
ICHRANGE	IQUANT	2	Ich Range
ICHRANGEMODE	TOGGLE	F	Ich Auto Range
ICHOFFSETENABLE	TOGGLE	F	Ich Offset Enable
ICHOFFSET	QUANT	0	Ich Offset (V)
ICHFILTER	IQUANT	2	Ich Filter
VCHRANGE	IQUANT	2	Vch Range
VCHRANGEMODE	TOGGLE	F	Vch Auto Range
VCHOFFSETENABLE	TOGGLE	F	Vch Offset Enable
VCHOFFSET	QUANT	0	Vch Offset (V)
VCHFILTER	IQUANT	2	Vch Filter
ACHRANGE	IQUANT	2	Ach Range
ACHOFFSETENABLE	TOGGLE	F	Ach Offset Enable
ACHOFFSET	QUANT	0	Ach Offset (V)
ACHFILTER	IQUANT	1	Ach Filter
IERANGELOWERLIMIT	IQUANT	1	I/E Range Lower Limit
IERANGEMODE	TOGGLE	T	I/E AutoRange
IERANGE	IQUANT	4	I/E Range
POSFEEDENABLE	TOGGLE	F	Positive Feedback IR Comp
POSFEEDRESISTANCE	QUANT	0	Positive Feedback Resistance (ohm)
ACHSELECT	IQUANT	4	Ach Select
SENSECABLEID	IQUANT	7	Sense Cable ID
PWRCABLEID	IQUANT	7	Power Cable ID
DCCALDATE	LABEL	3/22/2024	DC Calibration Date
ACCALDATE	LABEL	3/22/2024	AC Calibration Date
THERMOSELECT	IQUANT	1	Thermo Select
FRAMEWORKVERSION	LABEL	7.8.4	Framework Version
INSTRUMENTVERSION	LABEL	4.42	Instrument Version
CURVE1	TABLE
	Pt	T	Vf	Im	Vu	Sig	Ach	IERange	Over	Temp
	#	s	V vs. Ref.	A	V	V	V	#	bits	deg C
	0	0.2	-1.79012E-001	3.79914E-009	0.00000E+000	-1.78950E-001	1.00049E-003	5	..........a	-327.66
	3	0.8	-1.48937E-001	2.45602E-008	0.00000E+000	-1.48950E-001	1.01969E-003	5	..........a	-327.66
	6	1.4	-1.18879E-001	3.79726E-008	0.00000E+000	-1.18950E-001	1.00429E-003	5	..........a	-327.66
	9	2	-8.88983E-002	4.96996E-008	0.00000E+000	-8.89500E-002	9.96492E-004	5	..........a	-327.66
	12	2.6	-5.89127E-002	6.04851E-008	0.00000E+000	-5.89500E-002	1.01669E-003	5	..........a	-327.66
	15	3.2	-2.89450E-002	7.07740E-008	0.00000E+000	-2.89500E-002	1.00049E-003	5	..........a	-327.66
	18	3.8	1.16524E-003	8.04687E-008	0.00000E+000	1.05000E-003	1.00179E-003	5	..........a	-327.66
	21	4.4	3.10752E-002	9.03549E-008	0.00000E+000	3.10500E-002	1.00459E-003	5	..........a	-327.66
	24	5	6.10481E-002	9.99647E-008	0.00000E+000	6.10500E-002	9.98792E-004	5	..........a	-327.66
	27	5.6	9.10420E-002	1.09622E-007	0.00000E+000	9.10500E-002	9.88392E-004	5	..........a	-327.66
	30	6.2	1.21157E-001	1.19571E-007	0.00000E+000	1.21050E-001	1.00389E-003	5	..........a	-327.66
	33	6.8	1.51070E-001	1.29670E-007	0.00000E+000	1.51050E-001	9.84492E-004	5	..........a	-327.66
	36	7.4	1.81038E-001	1.40029E-007	0.00000E+000	1.81050E-001	9.93892E-004	5	..........a	-327.66
	39	8	2.10997E-001	1.50779E-007	0.00000E+000	2.11050E-001	1.00649E-003	5	..........a	-327.66
	42	8.6	2.41057E-001	1.62090E-007	0.00000E+000	2.41050E-001	9.92792E-004	5	..........a	-327.66
	45	9.2	2.70764E-001	1.74105E-007	0.00000E+000	2.71050E-001	9.93392E-004	5	..........a	-327.66
	48	9.8	3.00898E-001	1.86895E-007	0.00000E+000	3.01050E-001	1.00289E-003	5	..........a	-327.66
	51	10.4	3.30979E-001	2.00504E-007	0.00000E+000	3.31050E-001	9.93492E-004	5	..........a	-327.66
	54	11	3.61070E-001	2.14966E-007	0.00000E+000	3.61050E-001	9.94092E-004	5	..........a	-327.66
	57	11.6	3.90975E-001	2.30183E-007	0.00000E+000	3.91050E-001	1.00349E-003	5	..........a	-327.66
	60	12.2	4.20954E-001	2.46078E-007	0.00000E+000	4.21050E-001	9.91292E-004	5	..........a	-327.66
	63	12.8	4.50933E-001	2.62263E-007	0.00000E+000	4.51050E-001	9.77092E-004	5	..........a	-327.66
	66	13.4	4.81013E-001	2.78813E-007	0.00000E+000	4.81050E-001	9.88592E-004	5	..........a	-327.66
	69	14	5.10840E-001	2.95348E-007	0.00000E+000	5.11050E-001	9.95292E-004	5	..........a	-327.66
	72	14.6	5.40845E-001	3.11465E-007	0.00000E+000	5.41050E-001	9.87592E-004	5	..........a	-327.66
	75	15.2	5.70867E-001	3.26921E-007	0.00000E+000	5.71050E-001	9.87892E-004	5	..........a	-327.66
	78	15.8	6.00895E-001	3.41674E-007	0.00000E+000	6.01050E-001	9.89992E-004	5	..........a	-327.66
	81	16.4	6.30819E-001	3.54810E-007	0.00000E+000	6.31050E-001	9.94892E-004	5	..........a	-327.66
	84	17	6.60797E-001	3.65534E-007	0.00000E+000	6.61050E-001	1.01199E-003	5	..........a	-327.66
	87	17.6	6.90790E-001	3.74152E-007	0.00000E+000	6.91050E-001	1.00919E-003	5	..........a	-327.66
	90	18.2	7.20846E-001	3.81418E-007	0.00000E+000	7.21050E-001	9.92192E-004	5	..........a	-327.66
	93	18.8	7.50814E-001	3.88040E-007	0.00000E+000	7.51050E-001	9.90992E-004	5	..........a	-327.66
	96	19.4	7.80830E-001	3.94506E-007	0.00000E+000	7.81050E-001	9.95392E-004	5	..........a	-327.66
	99	20	7.90804E-001	3.57318E-007	0.00000E+000	7.91050E-001	1.00119E-003	5	..........a	-327.66
	102	20.6	7.60967E-001	2.81817E-007	0.00000E+000	7.61050E-001	9.83592E-004	5	..........a	-327.66
	105	21.2	7.30864E-001	2.35306E-007	0.00000E+000	7.31050E-001	1.01189E-003	5	..........a	-327.66
	108	21.8	7.00911E-001	2.01914E-007	0.00000E+000	7.01050E-001	1.00069E-003	5	..........a	-327.66
	111	22.4	6.70920E-001	1.75778E-007	0.00000E+000	6.71050E-001	9.78692E-004	5	..........a	-327.66
	114	23	6.41025E-001	1.54175E-007	0.00000E+000	6.41050E-001	1.00649E-003	5	..........a	-327.66
	117	23.6	6.10966E-001	1.35557E-007	0.00000E+000	6.11050E-001	1.00139E-003	5	..........a	-327.66
	120	24.2	5.80993E-001	1.18965E-007	0.00000E+000	5.81050E-001	9.94092E-004	5	..........a	-327.66
	123	24.8	5.51022E-001	1.03838E-007	0.00000E+000	5.51050E-001	1.00419E-003	5	..........a	-327.66
	126	25.4	5.21079E-001	8.99265E-008	0.00000E+000	5.21050E-001	9.85792E-004	5	..........a	-327.66
	129	26	4.91005E-001	7.68846E-008	0.00000E+000	4.91050E-001	1.00229E-003	5	..........a	-327.66
	132	26.6	4.60969E-001	6.45919E-008	0.00000E+000	4.61050E-001	9.95192E-004	5	..........a	-327.66
	135	27.2	4.31040E-001	5.28155E-008	0.00000E+000	4.31050E-001	9.81892E-004	5	..........a	-327.66
	138	27.8	4.01148E-001	4.14016E-008	0.00000E+000	4.01050E-001	1.02159E-003	5	..........a	-327.66
	141	28.4	3.71047E-001	3.04084E-008	0.00000E+000	3.71050E-001	9.99092E-004	5	..........a	-327.66
	144	29	3.41063E-001	1.97213E-008	0.00000E+000	3.41050E-001	1.00639E-003	5	..........a	-327.66
	147	29.6	3.11080E-001	9.27992E-009	0.00000E+000	3.11050E-001	9.98392E-004	5	..........a	-327.66
	150	30.2	2.81143E-001	-1.01440E-009	0.00000E+000	2.81050E-001	1.00659E-003	5	..........a	-327.66
	153	30.8	2.51081E-001	-1.11472E-008	0.00000E+000	2.51050E-001	1.01389E-003	5	..........a	-327.66
	156	31.4	2.21105E-001	-2.11596E-008	0.00000E+000	2.21050E-001	9.98492E-004	5	..........a	-327.66
	159	32	1.91137E-001	-3.13898E-008	0.00000E+000	1.91050E-001	9.81792E-004	5	..........a	-327.66
	162	32.6	1.61193E-001	-4.12866E-008	0.00000E+000	1.61050E-001	1.01609E-003	5	..........a	-327.66
	165	33.2	1.31135E-001	-5.10719E-008	0.00000E+000	1.31050E-001	1.01149E-003	5	..........a	-327.66
	168	33.8	1.01118E-001	-6.06646E-008	0.00000E+000	1.01050E-001	1.02609E-003	5	..........a	-327.66
	171	34.4	7.11881E-002	-7.02328E-008	0.00000E+000	7.10500E-002	9.91192E-004	5	..........a	-327.66
	174	35	4.11786E-002	-7.96102E-008	0.00000E+000	4.10500E-002	1.01459E-003	5	..........a	-327.66
	177	35.6	1.11733E-002	-8.90713E-008	0.00000E+000	1.10500E-002	1.02199E-003	5	..........a	-327.66
	180	36.2	-1.88432E-002	-9.83428E-008	0.00000E+000	-1.89500E-002	9.99092E-004	5	..........a	-327.66
	183	36.8	-4.88515E-002	-1.07494E-007	0.00000E+000	-4.89500E-002	9.99092E-004	5	..........a	-327.66
	186	37.4	-7.87832E-002	-1.16471E-007	0.00000E+000	-7.89500E-002	1.00479E-003	5	..........a	-327.66
	189	38	-1.08865E-001	-1.25220E-007	0.00000E+000	-1.08950E-001	1.01459E-003	5	..........a	-327.66
	192	38.6	-1.38804E-001	-1.33669E-007	0.00000E+000	-1.38950E-001	1.00099E-003	5	..........a	-327.66
	195	39.2	-1.68808E-001	-1.41811E-007	0.00000E+000	-1.68950E-001	1.00509E-003	5	..........a	-327.66
	198	39.8	-1.98795E-001	-1.49769E-007	0.00000E+000	-1.98950E-001	1.01419E-003	5	..........a	-327.66
	201	40.4	-2.28804E-001	-1.57428E-007	0.00000E+000	-2.28950E-001	9.96392E-004	5	..........a	-327.66
	204	41	-2.58796E-001	-1.64882E-007	0.00000E+000	-2.58950E-001	1.00269E-003	5	..........a	-327.66
	207	41.6	-2.88722E-001	-1.72366E-007	0.00000E+000	-2.88950E-001	9.91792E-004	5	..........a	-327.66
	210	42.2	-3.18712E-001	-1.79239E-007	0.00000E+000	-3.18950E-001	1.01389E-003	5	..........a	-327.66
	213	42.8	-3.48759E-001	-1.86670E-007	0.00000E+000	-3.48950E-001	9.96592E-004	5	..........a	-327.66
	216	43.4	-3.78763E-001	-1.94031E-007	0.00000E+000	-3.78950E-001	1.02059E-003	5	..........a	-327.66
	219	44	-4.08745E-001	-2.01745E-007	0.00000E+000	-4.08950E-001	9.91492E-004	5	..........a	-327.66
	222	44.6	-4.38697E-001	-2.09662E-007	0.00000E+000	-4.38950E-001	1.02319E-003	5	..........a	-327.66
	225	45.2	-4.68738E-001	-2.17952E-007	0.00000E+000	-4.68950E-001	1.01379E-003	5	..........a	-327.66
	228	45.8	-4.98742E-001	-2.26670E-007	0.00000E+000	-4.98950E-001	1.01189E-003	5	..........a	-327.66
	231	46.4	-5.28680E-001	-2.35260E-007	0.00000E+000	-5.28950E-001	1.00059E-003	5	..........a	-327.66
	234	47	-5.58737E-001	-2.44230E-007	0.00000E+000	-5.58950E-001	1.02149E-003	5	..........a	-327.66
	237	47.6	-5.88765E-001	-2.53598E-007	0.00000E+000	-5.88950E-001	9.98792E-004	5	..........a	-327.66
	238	47.8	-5.98695E-001	-2.56881E-007	0.00000E+000	-5.98950E-001	1.00469E-003	5	..........a	-327.66
CURVE2	TABLE
	Pt	T	Vf	Im	Vu	Sig	Ach	IERange	Over	Temp
	#	s	V vs. Ref.	A	V	V	V	#	bits	deg C
	239	48	-5.89779E-001	-2.29568E-007	0.00000E+000	-5.90000E-001	9.97492E-004	5	..........a	-327.66
	242	48.6	-5.59787E-001	-1.78474E-007	0.00000E+000	-5.60000E-001	1.01199E-003	5	..........a	-327.66
	245	49.2	-5.29822E-001	-1.45258E-007	0.00000E+000	-5.30000E-001	9.98892E-004	5	..........a	-327.66
	248	49.8	-4.99792E-001	-1.19355E-007	0.00000E+000	-5.00000E-001	9.95792E-004	5	..........a	-327.66
	251	50.4	-4.69828E-001	-9.73847E-008	0.00000E+000	-4.70000E-001	9.89392E-004	5	..........a	-327.66
	254	51	-4.39863E-001	-7.78791E-008	0.00000E+000	-4.40000E-001	9.99192E-004	5	..........a	-327.66
	257	51.6	-4.09854E-001	-6.02635E-008	0.00000E+000	-4.10000E-001	1.01209E-003	5	..........a	-327.66
	260	52.2	-3.79826E-001	-4.41176E-008	0.00000E+000	-3.80000E-001	1.00999E-003	5	..........a	-327.66
	263	52.8	-3.49866E-001	-2.90874E-008	0.00000E+000	-3.50000E-001	1.00219E-003	5	..........a	-327.66
	266	53.4	-3.19856E-001	-1.51546E-008	0.00000E+000	-3.20000E-001	9.90192E-004	5	..........a	-327.66
	269	54	-2.89941E-001	-2.08807E-009	0.00000E+000	-2.90000E-001	9.99492E-004	5	..........a	-327.66
	272	54.6	-2.59828E-001	1.03224E-008	0.00000E+000	-2.60000E-001	9.95992E-004	5	..........a	-327.66
	275	55.2	-2.29956E-001	2.21151E-008	0.00000E+000	-2.30000E-001	1.01589E-003	5	..........a	-327.66
	278	55.8	-1.99999E-001	3.33895E-008	0.00000E+000	-2.00000E-001	9.91692E-004	5	..........a	-327.66
	281	56.4	-1.69937E-001	4.42226E-008	0.00000E+000	-1.70000E-001	1.02329E-003	5	..........a	-327.66
	284	57	-1.39905E-001	5.46801E-008	0.00000E+000	-1.40000E-001	9.97592E-004	5	..........a	-327.66
	287	57.6	-1.10029E-001	6.48060E-008	0.00000E+000	-1.10000E-001	1.01319E-003	5	..........a	-327.66
	290	58.2	-8.00167E-002	7.47544E-008	0.00000E+000	-8.00000E-002	1.01629E-003	5	..........a	-327.66
	293	58.8	-4.99630E-002	8.44204E-008	0.00000E+000	-5.00000E-002	1.00729E-003	5	..........a	-327.66
	296	59.4	-1.99764E-002	9.39477E-008	0.00000E+000	-2.00000E-002	9.98592E-004	5	..........a	-327.66
	299	60	1.00576E-002	1.03381E-007	0.00000E+000	1.00000E-002	1.00579E-003	5	..........a	-327.66
	302	60.6	4.00261E-002	1.12703E-007	0.00000E+000	4.00000E-002	9.92592E-004	5	..........a	-327.66
	305	61.2	6.99741E-002	1.22025E-007	0.00000E+000	7.00000E-002	1.00049E-003	5	..........a	-327.66
	308	61.8	1.00013E-001	1.31316E-007	0.00000E+000	1.00000E-001	9.97492E-004	5	..........a	-327.66
	311	62.4	1.29963E-001	1.40530E-007	0.00000E+000	1.30000E-001	1.00519E-003	5	..........a	-327.66
	314	63	1.59990E-001	1.49714E-007	0.00000E+000	1.60000E-001	1.01759E-003	5	..........a	-327.66
	317	63.6	1.90039E-001	1.59016E-007	0.00000E+000	1.90000E-001	1.00349E-003	5	..........a	-327.66
	320	64.2	2.19870E-001	1.68465E-007	0.00000E+000	2.20000E-001	9.90492E-004	5	..........a	-327.66
	323	64.8	2.49909E-001	1.78053E-007	0.00000E+000	2.50000E-001	1.00999E-003	5	..........a	-327.66
	326	65.4	2.79902E-001	1.87937E-007	0.00000E+000	2.80000E-001	1.01459E-003	5	..........a	-327.66
	329	66	3.09963E-001	1.98059E-007	0.00000E+000	3.10000E-001	1.02849E-003	5	..........a	-327.66
	332	66.6	3.39943E-001	2.08352E-007	0.00000E+000	3.40000E-001	1.01699E-003	5	..........a	-327.66
	335	67.2	3.69930E-001	2.18868E-007	0.00000E+000	3.70000E-001	1.00279E-003	5	..........a	-327.66
	338	67.8	3.99892E-001	2.29532E-007	0.00000E+000	4.00000E-001	9.97292E-004	5	..........a	-327.66
	341	68.4	4.29966E-001	2.40422E-007	0.00000E+000	4.30000E-001	1.00389E-003	5	..........a	-327.66
	344	69	4.59877E-001	2.51552E-007	0.00000E+000	4.60000E-001	9.93992E-004	5	..........a	-327.66
	347	69.6	4.89843E-001	2.62933E-007	0.00000E+000	4.90000E-001	1.00409E-003	5	..........a	-327.66
	350	70.2	5.19865E-001	2.74493E-007	0.00000E+000	5.20000E-001	9.93192E-004	5	..........a	-327.66
	353	70.8	5.49904E-001	2.86177E-007	0.00000E+000	5.50000E-001	1.00589E-003	5	..........a	-327.66
	356	71.4	5.79853E-001	2.98072E-007	0.00000E+000	5.80000E-001	1.00499E-003	5	..........a	-327.66
	359	72	6.09841E-001	3.10005E-007	0.00000E+000	6.10000E-001	9.91792E-004	5	..........a	-327.66
[...]
	952	190.6	6.59878E-001	1.63134E-007	0.00000E+000	6.60000E-001	9.96692E-004	5	..........a	-327.66
	955	191.2	6.29990E-001	1.43643E-007	0.00000E+000	6.30000E-001	9.83992E-004	5	..........a	-327.66
	958	191.8	5.99908E-001	1.26318E-007	0.00000E+000	6.00000E-001	1.00949E-003	5	..........a	-327.66
	961	192.4	5.69905E-001	1.10669E-007	0.00000E+000	5.70000E-001	9.74092E-004	5	..........a	-327.66
	964	193	5.39954E-001	9.63127E-008	0.00000E+000	5.40000E-001	9.81092E-004	5	..........a	-327.66
	967	193.6	5.09968E-001	8.29228E-008	0.00000E+000	5.10000E-001	1.00639E-003	5	..........a	-327.66
	970	194.2	4.79916E-001	7.03051E-008	0.00000E+000	4.80000E-001	9.98692E-004	5	..........a	-327.66
	973	194.8	4.49841E-001	5.83033E-008	0.00000E+000	4.50000E-001	9.93292E-004	5	..........a	-327.66
	976	195.4	4.19992E-001	4.67609E-008	0.00000E+000	4.20000E-001	9.72892E-004	5	..........a	-327.66
	979	196	3.90045E-001	3.56059E-008	0.00000E+000	3.90000E-001	9.82092E-004	5	..........a	-327.66
	982	196.6	3.59969E-001	2.47159E-008	0.00000E+000	3.60000E-001	9.84492E-004	5	..........a	-327.66
	985	197.2	3.29987E-001	1.41619E-008	0.00000E+000	3.30000E-001	1.00449E-003	5	..........a	-327.66
	988	197.8	3.00074E-001	3.83710E-009	0.00000E+000	3.00000E-001	9.99992E-004	5	..........a	-327.66
	991	198.4	2.70097E-001	-6.35997E-009	0.00000E+000	2.70000E-001	9.86392E-004	5	..........a	-327.66
	994	199	2.40064E-001	-1.63322E-008	0.00000E+000	2.40000E-001	9.85692E-004	5	..........a	-327.66
	997	199.6	2.10044E-001	-2.63129E-008	0.00000E+000	2.10000E-001	9.99192E-004	5	..........a	-327.66
	1000	200.2	1.80132E-001	-3.61160E-008	0.00000E+000	1.80000E-001	9.65892E-004	5	..........a	-327.66
	1003	200.8	1.50107E-001	-4.58593E-008	0.00000E+000	1.50000E-001	9.98692E-004	5	..........a	-327.66
	1006	201.4	1.20093E-001	-5.54520E-008	0.00000E+000	1.20000E-001	1.00159E-003	5	..........a	-327.66
	1009	202	9.01195E-002	-6.49846E-008	0.00000E+000	9.00000E-002	9.89292E-004	5	..........a	-327.66
	1012	202.6	6.01538E-002	-7.44095E-008	0.00000E+000	6.00000E-002	9.81192E-004	5	..........a	-327.66
	1015	203.2	3.00967E-002	-8.38681E-008	0.00000E+000	3.00000E-002	9.92792E-004	5	..........a	-327.66
	1018	203.8	8.90916E-005	-9.31751E-008	0.00000E+000	7.45058E-009	9.90992E-004	5	..........a	-327.66
	1021	204.4	-2.98793E-002	-1.02351E-007	0.00000E+000	-3.00000E-002	9.77192E-004	5	..........a	-327.66
	1024	205	-5.97915E-002	-1.11315E-007	0.00000E+000	-6.00000E-002	9.83292E-004	5	..........a	-327.66
	1027	205.6	-8.98455E-002	-1.20061E-007	0.00000E+000	-9.00000E-002	9.82592E-004	5	..........a	-327.66
	1030	206.2	-1.19858E-001	-1.28632E-007	0.00000E+000	-1.20000E-001	9.78592E-004	5	..........a	-327.66
	1033	206.8	-1.49874E-001	-1.36755E-007	0.00000E+000	-1.50000E-001	1.00389E-003	5	..........a	-327.66
	1036	207.4	-1.79797E-001	-1.44962E-007	0.00000E+000	-1.80000E-001	9.80392E-004	5	..........a	-327.66
	1039	208	-2.09836E-001	-1.52782E-007	0.00000E+000	-2.10000E-001	9.91592E-004	5	..........a	-327.66
	1042	208.6	-2.39843E-001	-1.60135E-007	0.00000E+000	-2.40000E-001	9.85892E-004	5	..........a	-327.66
	1045	209.2	-2.69818E-001	-1.67395E-007	0.00000E+000	-2.70000E-001	9.82592E-004	5	..........a	-327.66
	1048	209.8	-2.99782E-001	-1.74461E-007	0.00000E+000	-3.00000E-001	9.79592E-004	5	..........a	-327.66
	1051	210.4	-3.29832E-001	-1.81724E-007	0.00000E+000	-3.30000E-001	9.99092E-004	5	..........a	-327.66
	1054	211	-3.59791E-001	-1.88825E-007	0.00000E+000	-3.60000E-001	9.87692E-004	5	..........a	-327.66
	1057	211.6	-3.89811E-001	-1.96278E-007	0.00000E+000	-3.90000E-001	9.92392E-004	5	..........a	-327.66
	1060	212.2	-4.19696E-001	-2.04040E-007	0.00000E+000	-4.20000E-001	9.74692E-004	5	..........a	-327.66
	1063	212.8	-4.49792E-001	-2.11790E-007	0.00000E+000	-4.50000E-001	9.88192E-004	5	..........a	-327.66
	1066	213.4	-4.79754E-001	-2.19926E-007	0.00000E+000	-4.80000E-001	9.79292E-004	5	..........a	-327.66
	1069	214	-5.09768E-001	-2.27943E-007	0.00000E+000	-5.10000E-001	9.76592E-004	5	..........a	-327.66
	1072	214.6	-5.39690E-001	-2.36528E-007	0.00000E+000	-5.40000E-001	9.80292E-004	5	..........a	-327.66
	1075	215.2	-5.69767E-001	-2.44709E-007	0.00000E+000	-5.70000E-001	9.92692E-004	5	..........a	-327.66
	1078	215.8	-5.99716E-001	-2.52737E-007	0.00000E+000	-6.00000E-001	9.83792E-004	5	..........a	-327.66
CURVE5	TABLE
	Pt	T	Vf	Im	Vu	Sig	Ach	IERange	Over	Temp
	#	s	V vs. Ref.	A	V	V	V	#	bits	deg C
	1079	216	-5.89796E-001	-2.25087E-007	0.00000E+000	-5.90000E-001	9.90492E-004	5	..........a	-327.66
	1080	216.2	-5.79732E-001	-2.06042E-007	0.00000E+000	-5.80000E-001	9.82592E-004	5	..........a	-327.66
	1081	216.4	-5.69797E-001	-1.90582E-007	0.00000E+000	-5.70000E-001	9.91892E-004	5	..........a	-327.66
	1082	216.6	-5.59791E-001	-1.77199E-007	0.00000E+000	-5.60000E-001	9.98292E-004	5	..........a	-327.66
	1083	216.8	-5.49831E-001	-1.65514E-007	0.00000E+000	-5.50000E-001	9.94292E-004	5	..........a	-327.66
	1084	217	-5.39721E-001	-1.55020E-007	0.00000E+000	-5.40000E-001	9.82392E-004	5	..........a	-327.66
	1085	217.2	-5.29814E-001	-1.45004E-007	0.00000E+000	-5.30000E-001	9.93492E-004	5	..........a	-327.66
	1086	217.4	-5.19831E-001	-1.36001E-007	0.00000E+000	-5.20000E-001	9.86292E-004	5	..........a	-327.66
	1087	217.6	-5.09813E-001	-1.27488E-007	0.00000E+000	-5.10000E-001	9.91892E-004	5	..........a	-327.66
	1088	217.8	-4.99792E-001	-1.19391E-007	0.00000E+000	-5.00000E-001	9.80792E-004	5	..........a	-327.66
	1089	218	-4.89813E-001	-1.11750E-007	0.00000E+000	-4.90000E-001	1.00519E-003	5	..........a	-327.66
	1090	218.2	-4.79830E-001	-1.04471E-007	0.00000E+000	-4.80000E-001	9.86792E-004	5	..........a	-327.66
	1091	218.4	-4.69826E-001	-9.72978E-008	0.00000E+000	-4.70000E-001	9.82692E-004	5	..........a	-327.66
	1092	218.6	-4.59773E-001	-9.05583E-008	0.00000E+000	-4.60000E-001	9.87092E-004	5	..........a	-327.66
	1093	218.8	-4.49831E-001	-8.40265E-008	0.00000E+000	-4.50000E-001	9.86692E-004	5	..........a	-327.66
	1094	219	-4.39837E-001	-7.76798E-008	0.00000E+000	-4.40000E-001	9.85592E-004	5	..........a	-327.66
	1095	219.2	-4.29839E-001	-7.16068E-008	0.00000E+000	-4.30000E-001	9.76892E-004	5	..........a	-327.66
	1096	219.4	-4.19786E-001	-6.56540E-008	0.00000E+000	-4.20000E-001	9.78792E-004	5	..........a	-327.66
	1097	219.6	-4.09845E-001	-5.99276E-008	0.00000E+000	-4.10000E-001	9.80292E-004	5	..........a	-327.66
	1098	219.8	-3.99847E-001	-5.42805E-008	0.00000E+000	-4.00000E-001	9.83192E-004	5	..........a	-327.66
	1099	220	-3.89904E-001	-4.89662E-008	0.00000E+000	-3.90000E-001	1.00439E-003	5	..........a	-327.66
	1100	220.2	-3.79812E-001	-4.36488E-008	0.00000E+000	-3.80000E-001	9.68092E-004	5	..........a	-327.66
	1101	220.4	-3.69874E-001	-3.85190E-008	0.00000E+000	-3.70000E-001	9.88492E-004	5	..........a	-327.66
	1102	220.6	-3.59915E-001	-3.34685E-008	0.00000E+000	-3.60000E-001	9.99792E-004	5	..........a	-327.66
	1103	220.8	-3.49874E-001	-2.85788E-008	0.00000E+000	-3.50000E-001	9.73592E-004	5	..........a	-327.66
	1104	221	-3.39823E-001	-2.37958E-008	0.00000E+000	-3.40000E-001	9.89392E-004	5	..........a	-327.66
	1105	221.2	-3.29882E-001	-1.91330E-008	0.00000E+000	-3.30000E-001	1.00579E-003	5	..........a	-327.66
	1106	221.4	-3.19858E-001	-1.45698E-008	0.00000E+000	-3.20000E-001	9.82192E-004	5	..........a	-327.66
	1107	221.6	-3.09894E-001	-1.01058E-008	0.00000E+000	-3.10000E-001	9.92392E-004	5	..........a	-327.66
	1108	221.8	-2.99866E-001	-5.78800E-009	0.00000E+000	-3.00000E-001	9.85392E-004	5	..........a	-327.66
	1109	222	-2.89944E-001	-1.47475E-009	0.00000E+000	-2.90000E-001	9.81892E-004	5	..........a	-327.66
	1110	222.2	-2.79961E-001	2.74744E-009	0.00000E+000	-2.80000E-001	9.97592E-004	5	..........a	-327.66
	1111	222.4	-2.69883E-001	6.79253E-009	0.00000E+000	-2.70000E-001	9.85092E-004	5	..........a	-327.66
	1112	222.6	-2.59831E-001	1.08610E-008	0.00000E+000	-2.60000E-001	9.67292E-004	5	..........a	-327.66
	1113	222.8	-2.49893E-001	1.48575E-008	0.00000E+000	-2.50000E-001	9.92192E-004	5	..........a	-327.66
	1114	223	-2.39945E-001	1.87553E-008	0.00000E+000	-2.40000E-001	9.88992E-004	5	..........a	-327.66
	1115	223.2	-2.29965E-001	2.25509E-008	0.00000E+000	-2.30000E-001	1.00059E-003	5	..........a	-327.66
	1116	223.4	-2.19879E-001	2.63289E-008	0.00000E+000	-2.20000E-001	9.77992E-004	5	..........a	-327.66
	1117	223.6	-2.09925E-001	3.00625E-008	0.00000E+000	-2.10000E-001	1.01219E-003	5	..........a	-327.66
	1118	223.8	-1.99994E-001	3.36876E-008	0.00000E+000	-2.00000E-001	9.94192E-004	5	..........a	-327.66
	1119	224	-1.90061E-001	3.72797E-008	0.00000E+000	-1.90000E-001	9.87492E-004	5	..........a	-327.66
	1120	224.2	-1.79946E-001	4.06826E-008	0.00000E+000	-1.80000E-001	9.88892E-004	5	..........a	-327.66