File: data/raw/batch_data/20240424_K_GM0016_HL03_E03_CV50.DTA
EXPLAIN
TAG	CV
TITLE	LABEL	Cyclic Voltammetry	Test &Identifier
DATE	LABEL	4/24/2024	Date
TIME	LABEL	17:17:03	Time
NOTES	NOTES	1	&Notes...

PSTAT	PSTAT	REF600P-43058	Potentiostat
VINIT	POTEN	0.00000E+000	T	Initial &E (V)
VLIMIT1	POTEN	-6.00000E-001	F	Scan Limit &1 (V)
VLIMIT2	POTEN	8.00000E-001	F	Scan Limit &2 (V)
VFINAL	POTEN	0.00000E+000	T	Final &E (V)
SCANRATE	QUANT	4.99999E+001	&Scan Rate (mV/s)
STEPSIZE	QUANT	1.00000E+001	St&ep Size (mV)
CYCLES	IQUANT	4	C&ycles (#)
IMODE	SELECTOR	0	I/E Range &Mode
IRANGE	QUANT	1.00000E-005	&Max Current (mA)
AREA	QUANT	1.00000E+000	Electrode &Area (cm^2)
ELECTRODETYPE	SELECTOR	0	Electrode Type
STRIPPING	TOGGLE	F	Used for Stripping
POLARITY	TOGGLE	F	Signal Polarity
CONDIT	TWOPARAM	F	1.50000E+001	0.00000E+000	Conditionin&g	Time(s)	E(V)
DELAY	TWOPARAM	T	1.00000E+001	0.00000E+000	Init. De&lay	Time(s)	Stab.(mV/s)
EQDELAY	QUANT	1.00000E+001	Equil. &Time (s)
IRCOMP	SELECTOR	0	IRCom&p
PFCOR	QUANT	5.00000E+001	PF Corr. (ohm)
SAMPLINGMODE	SELECTOR	1	Sampling &Mode
OCVCURVE	TABLE	39
	Pt	T	Vf	Vm	Ach	Over	Temp
	#	s	V vs. Ref.	V	V	bits	deg C
	0	0.258333	-1.84780E-001	-1.84780E-001	2.26726E-004	..........a	-327.66
	1	0.516667	-1.84786E-001	-1.85093E-001	2.25592E-004	..........a	-327.66
	2	0.775	-1.84823E-001	-1.85395E-001	2.22392E-004	..........a	-327.66
	3	1.03333	-1.84928E-001	-1.85708E-001	2.15726E-004	..........a	-327.66
	4	1.29167	-1.85118E-001	-1.86007E-001	2.22126E-004	..........a	-327.66
	5	1.55	-1.85377E-001	-1.86308E-001	2.15059E-004	..........a	-327.66
	6	1.80833	-1.85671E-001	-1.86605E-001	2.18192E-004	..........a	-327.66
	7	2.06667	-1.85975E-001	-1.86898E-001	2.24659E-004	..........a	-327.66
	8	2.325	-1.86279E-001	-1.87190E-001	2.25392E-004	..........a	-327.66
	9	2.58333	-1.86578E-001	-1.87438E-001	2.22926E-004	..........a	-327.66
	10	2.84167	-1.86867E-001	-1.87631E-001	2.32126E-004	..........a	-327.66
	11	3.1	-1.87139E-001	-1.87808E-001	2.19926E-004	..........a	-327.66
	12	3.35833	-1.87383E-001	-1.87976E-001	2.12726E-004	..........a	-327.66
	13	3.61667	-1.87597E-001	-1.88140E-001	2.10326E-004	..........a	-327.66
	14	3.875	-1.87787E-001	-1.88300E-001	2.10192E-004	..........a	-327.66
	15	4.13333	-1.87961E-001	-1.88472E-001	2.12592E-004	..........a	-327.66
	16	4.39167	-1.88128E-001	-1.88651E-001	2.26259E-004	..........a	-327.66
	17	4.65	-1.88295E-001	-1.88839E-001	2.15126E-004	..........a	-327.66
	18	4.90833	-1.88466E-001	-1.89041E-001	2.25059E-004	..........a	-327.66
	19	5.16667	-1.88645E-001	-1.89236E-001	2.18792E-004	..........a	-327.66
	20	5.425	-1.88832E-001	-1.89445E-001	2.20592E-004	..........a	-327.66
	21	5.68333	-1.89026E-001	-1.89660E-001	2.19659E-004	..........a	-327.66
	22	5.94167	-1.89227E-001	-1.89878E-001	2.07259E-004	..........a	-327.66
	23	6.2	-1.89434E-001	-1.90100E-001	2.29859E-004	..........a	-327.66
	24	6.45833	-1.89646E-001	-1.90329E-001	2.27859E-004	..........a	-327.66
	25	6.71667	-1.89864E-001	-1.90561E-001	2.28326E-004	..........a	-327.66
	26	6.975	-1.90087E-001	-1.90798E-001	2.22326E-004	..........a	-327.66
	27	7.23333	-1.90314E-001	-1.91028E-001	2.13059E-004	..........a	-327.66
	28	7.49167	-1.90545E-001	-1.91261E-001	2.16792E-004	..........a	-327.66
	29	7.75	-1.90777E-001	-1.91498E-001	2.16259E-004	..........a	-327.66
	30	8.00833	-1.91010E-001	-1.91730E-001	2.09192E-004	..........a	-327.66
	31	8.26667	-1.91244E-001	-1.91968E-001	2.16259E-004	..........a	-327.66
	32	8.525	-1.91478E-001	-1.92203E-001	2.21992E-004	..........a	-327.66
	33	8.78333	-1.91713E-001	-1.92444E-001	2.19126E-004	..........a	-327.66
	34	9.04167	-1.91950E-001	-1.92678E-001	2.20859E-004	..........a	-327.66
	35	9.3	-1.92186E-001	-1.92916E-001	2.18659E-004	..........a	-327.66
	36	9.5583	-1.92423E-001	-1.93146E-001	2.29059E-004	..........a	-327.66
	37	9.8167	-1.92660E-001	-1.93389E-001	2.23059E-004	..........a	-327.66
	38	10.075	-1.92896E-001	-1.93618E-001	2.23059E-004	..........a	-327.66
EOC	QUANT	-0.1928957	Open Circuit (V)
PSTATMODEL	IQUANT	7	Pstat Model
PSTATSECTION	LABEL	REF600P-43058	Pstat Section
PSTATSERIALNO	LABEL	43058	Pstat Serial Number
CTRLMODE	IQUANT	1	Control Mode
ELECTROMETER	IQUANT	0	RE=0 or CS=1
IESTAB	IQUANT	2	I/E Stability
CASPEED	IQUANT	4	Control Amp Speed
CONVENTION	IQUANT	1	Current Convention
ICHRANGE	IQUANT	2	Ich Range
ICHRANGEMODE	TOGGLE	F	Ich Auto Range
ICHOFFSETENABLE	TOGGLE	F	Ich Offset Enable
ICHOFFSET	QUANT	0	Ich Offset (V)
ICHFILTER	IQUANT	2	Ich Filter
VCHRANGE	IQUANT	2	Vch Range
VCHRANGEMODE	TOGGLE	F	Vch Auto Range
VCHOFFSETENABLE	TOGGLE	F	Vch Offset Enable
VCHOFFSET	QUANT	0	Vch Offset (V)
VCHFILTER	IQUANT	2	Vch Filter
ACHRANGE	IQUANT	2	Ach Range
ACHOFFSETENABLE	TOGGLE	F	Ach Offset Enable
ACHOFFSET	QUANT	0	Ach Offset (V)
ACHFILTER	IQUANT	1	Ach Filter
IERANGELOWERLIMIT	IQUANT	1	I/E Range Lower Limit
IERANGEMODE	TOGGLE	T	I/E AutoRange
IERANGE	IQUANT	4	I/E Range
POSFEEDENABLE	TOGGLE	F	Positive Feedback IR Comp
POSFEEDRESISTANCE	QUANT	0	Positive Feedback Resistance (ohm)
ACHSELECT	IQUANT	4	Ach Select
SENSECABLEID	IQUANT	7	Sense Cable ID
PWRCABLEID	IQUANT	7	Power Cable ID
DCCALDATE	LABEL	3/22/2024	DC Calibration Date
ACCALDATE	LABEL	3/22/2024	AC Calibration Date
THERMOSELECT	IQUANT	1	Thermo Select
FRAMEWORKVERSION	LABEL	7.8.4	Framework Version
INSTRUMENTVERSION	LABEL	4.42	Instrument Version
CURVE1	TABLE
	Pt	T	Vf	Im	Vu	Sig	Ach	IERange	Over	Temp
	#	s	V vs. Ref.	A	V	V	V	#	bits	deg C
	0	0.2	-1.92862E-001	1.79423E-009	0.00000E+000	-1.92900E-001	9.58592E-004	5	..........a	-327.66
	2	0.6	-2.12807E-001	-3.93724E-009	0.00000E+000	-2.12900E-001	9.82992E-004	5	..........a	-327.66
	4	1	-2.32811E-001	-7.97732E-009	0.00000E+000	-2.32900E-001	9.58192E-004	5	..........a	-327.66
	6	1.4	-2.52834E-001	-1.15920E-008	0.00000E+000	-2.52900E-001	9.75792E-004	5	..........a	-327.66
	8	1.8	-2.72778E-001	-1.50118E-008	0.00000E+000	-2.72900E-001	9.70892E-004	5	..........a	-327.66
	10	2.2	-2.92821E-001	-1.83512E-008	0.00000E+000	-2.92900E-001	9.64992E-004	5	..........a	-327.66
	12	2.6	-3.12795E-001	-2.16012E-008	0.00000E+000	-3.12900E-001	9.70292E-004	5	..........a	-327.66
	14	3	-3.32844E-001	-2.49541E-008	0.00000E+000	-3.32900E-001	9.55292E-004	5	..........a	-327.66
	16	3.4	-3.52813E-001	-2.80727E-008	0.00000E+000	-3.52900E-001	9.67092E-004	5	..........a	-327.66
	18	3.8	-3.72780E-001	-3.11862E-008	0.00000E+000	-3.72900E-001	9.68292E-004	5	..........a	-327.66
	20	4.2	-3.92762E-001	-3.42505E-008	0.00000E+000	-3.92900E-001	9.73792E-004	5	..........a	-327.66
	22	4.6	-4.12802E-001	-3.74017E-008	0.00000E+000	-4.12900E-001	9.72692E-004	5	..........a	-327.66
	24	5	-4.32758E-001	-4.06181E-008	0.00000E+000	-4.32900E-001	9.68392E-004	5	..........a	-327.66
	26	5.4	-4.52746E-001	-4.39282E-008	0.00000E+000	-4.52900E-001	9.69692E-004	5	..........a	-327.66
	28	5.8	-4.72738E-001	-4.72592E-008	0.00000E+000	-4.72900E-001	9.65492E-004	5	..........a	-327.66
	30	6.2	-4.92766E-001	-5.06864E-008	0.00000E+000	-4.92900E-001	9.67692E-004	5	..........a	-327.66
	32	6.6	-5.12757E-001	-5.42266E-008	0.00000E+000	-5.12900E-001	9.76092E-004	5	..........a	-327.66
	34	7	-5.32797E-001	-5.78526E-008	0.00000E+000	-5.32900E-001	9.76692E-004	5	..........a	-327.66
	36	7.4	-5.52751E-001	-6.16684E-008	0.00000E+000	-5.52900E-001	9.66392E-004	5	..........a	-327.66
	38	7.8	-5.72764E-001	-6.56101E-008	0.00000E+000	-5.72900E-001	9.70692E-004	5	..........a	-327.66
	40	8.2	-5.92716E-001	-6.98529E-008	0.00000E+000	-5.92900E-001	9.54992E-004	5	..........a	-327.66
	42	8.6	-5.92714E-001	-6.17574E-008	0.00000E+000	-5.92900E-001	9.61292E-004	5	..........a	-327.66
	44	9	-5.72781E-001	-5.00397E-008	0.00000E+000	-5.72900E-001	9.64092E-004	5	..........a	-327.66
	46	9.4	-5.52759E-001	-4.21391E-008	0.00000E+000	-5.52900E-001	9.66792E-004	5	..........a	-327.66
	48	9.8	-5.32788E-001	-3.58405E-008	0.00000E+000	-5.32900E-001	9.67092E-004	5	..........a	-327.66
	50	10.2	-5.12809E-001	-3.04281E-008	0.00000E+000	-5.12900E-001	9.67892E-004	5	..........a	-327.66
	52	10.6	-4.92777E-001	-2.56953E-008	0.00000E+000	-4.92900E-001	9.82092E-004	5	..........a	-327.66
	54	11	-4.72764E-001	-2.13594E-008	0.00000E+000	-4.72900E-001	9.62892E-004	5	..........a	-327.66
	56	11.4	-4.52788E-001	-1.73276E-008	0.00000E+000	-4.52900E-001	9.74192E-004	5	..........a	-327.66
	58	11.8	-4.32779E-001	-1.35894E-008	0.00000E+000	-4.32900E-001	9.67192E-004	5	..........a	-327.66
	60	12.2	-4.12834E-001	-1.00351E-008	0.00000E+000	-4.12900E-001	9.65092E-004	5	..........a	-327.66
	62	12.6	-3.92811E-001	-6.71599E-009	0.00000E+000	-3.92900E-001	9.77792E-004	5	..........a	-327.66
	64	13	-3.72818E-001	-3.52451E-009	0.00000E+000	-3.72900E-001	9.68592E-004	5	..........a	-327.66
	66	13.4	-3.52846E-001	-5.32093E-010	0.00000E+000	-3.52900E-001	9.57792E-004	5	..........a	-327.66
	68	13.8	-3.32902E-001	2.41984E-009	0.00000E+000	-3.32900E-001	9.71792E-004	5	..........a	-327.66
	70	14.2	-3.12821E-001	5.18839E-009	0.00000E+000	-3.12900E-001	9.60292E-004	5	..........a	-327.66
	72	14.6	-2.92924E-001	7.90326E-009	0.00000E+000	-2.92900E-001	9.66892E-004	5	..........a	-327.66
	74	15	-2.72821E-001	1.05448E-008	0.00000E+000	-2.72900E-001	9.51892E-004	5	..........a	-327.66
	76	15.4	-2.52892E-001	1.30936E-008	0.00000E+000	-2.52900E-001	9.75392E-004	5	..........a	-327.66
	78	15.8	-2.32870E-001	1.55974E-008	0.00000E+000	-2.32900E-001	9.48292E-004	5	..........a	-327.66
	80	16.2	-2.12905E-001	1.80207E-008	0.00000E+000	-2.12900E-001	9.71692E-004	5	..........a	-327.66
	82	16.6	-1.92882E-001	2.04072E-008	0.00000E+000	-1.92900E-001	9.66792E-004	5	..........a	-327.66
	84	17	-1.72889E-001	2.28075E-008	0.00000E+000	-1.72900E-001	9.69792E-004	5	..........a	-327.66
	86	17.4	-1.52913E-001	2.51232E-008	0.00000E+000	-1.52900E-001	9.72892E-004	5	..........a	-327.66
	88	17.8	-1.32892E-001	2.74653E-008	0.00000E+000	-1.32900E-001	9.75292E-004	5	..........a	-327.66
	90	18.2	-1.12911E-001	2.97525E-008	0.00000E+000	-1.12900E-001	9.70892E-004	5	..........a	-327.66
	92	18.6	-9.28731E-002	3.20627E-008	0.00000E+000	-9.29000E-002	9.57792E-004	5	..........a	-327.66
	94	19	-7.28815E-002	3.43546E-008	0.00000E+000	-7.29000E-002	9.53792E-004	5	..........a	-327.66
	96	19.4	-5.28667E-002	3.66546E-008	0.00000E+000	-5.29000E-002	9.68692E-004	5	..........a	-327.66
	98	19.8	-3.28967E-002	3.89645E-008	0.00000E+000	-3.29000E-002	9.58092E-004	5	..........a	-327.66
	100	20.2	-1.29070E-002	4.13113E-008	0.00000E+000	-1.29000E-002	9.65392E-004	5	..........a	-327.66
	102	20.6	7.13344E-003	4.36609E-008	0.00000E+000	7.10000E-003	9.66492E-004	5	..........a	-327.66
	104	21	2.71223E-002	4.60358E-008	0.00000E+000	2.71000E-002	9.72992E-004	5	..........a	-327.66
	106	21.4	4.71461E-002	4.84545E-008	0.00000E+000	4.71000E-002	9.70692E-004	5	..........a	-327.66
	108	21.8	6.71222E-002	5.08951E-008	0.00000E+000	6.71000E-002	9.66492E-004	5	..........a	-327.66
	110	22.2	8.71480E-002	5.34113E-008	0.00000E+000	8.71000E-002	9.69992E-004	5	..........a	-327.66
	112	22.6	1.07134E-001	5.59211E-008	0.00000E+000	1.07100E-001	9.81292E-004	5	..........a	-327.66
	114	23	1.27143E-001	5.85154E-008	0.00000E+000	1.27100E-001	9.68992E-004	5	..........a	-327.66
	116	23.4	1.47096E-001	6.11511E-008	0.00000E+000	1.47100E-001	9.83892E-004	5	..........a	-327.66
	118	23.8	1.67179E-001	6.38729E-008	0.00000E+000	1.67100E-001	9.72592E-004	5	..........a	-327.66
	120	24.2	1.87110E-001	6.66174E-008	0.00000E+000	1.87100E-001	9.67292E-004	5	..........a	-327.66
	122	24.6	2.07089E-001	6.94555E-008	0.00000E+000	2.07100E-001	9.74192E-004	5	..........a	-327.66
	124	25	2.27089E-001	7.25944E-008	0.00000E+000	2.27100E-001	9.80392E-004	5	..........a	-327.66
	126	25.4	2.47092E-001	7.58483E-008	0.00000E+000	2.47100E-001	9.73892E-004	5	..........a	-327.66
	128	25.8	2.67066E-001	7.86964E-008	0.00000E+000	2.67100E-001	9.55192E-004	5	..........a	-327.66
	130	26.2	2.87071E-001	8.15207E-008	0.00000E+000	2.87100E-001	9.61792E-004	5	..........a	-327.66
	132	26.6	3.07029E-001	8.47590E-008	0.00000E+000	3.07100E-001	9.69992E-004	5	..........a	-327.66
	134	27	3.27109E-001	8.85243E-008	0.00000E+000	3.27100E-001	9.75292E-004	5	..........a	-327.66
	136	27.4	3.47067E-001	9.28315E-008	0.00000E+000	3.47100E-001	9.70692E-004	5	..........a	-327.66
	138	27.8	3.67060E-001	9.76841E-008	0.00000E+000	3.67100E-001	9.71092E-004	5	..........a	-327.66
	140	28.2	3.87060E-001	1.02957E-007	0.00000E+000	3.87100E-001	9.62792E-004	5	..........a	-327.66
	142	28.6	4.07063E-001	1.08515E-007	0.00000E+000	4.07100E-001	9.81492E-004	5	..........a	-327.66
	144	29	4.27048E-001	1.14225E-007	0.00000E+000	4.27100E-001	9.82192E-004	5	..........a	-327.66
	146	29.4	4.47038E-001	1.20060E-007	0.00000E+000	4.47100E-001	9.68992E-004	5	..........a	-327.66
	148	29.8	4.67014E-001	1.25891E-007	0.00000E+000	4.67100E-001	9.75692E-004	5	..........a	-327.66
	150	30.2	4.86995E-001	1.31670E-007	0.00000E+000	4.87100E-001	9.66092E-004	5	..........a	-327.66
	152	30.6	5.07020E-001	1.37407E-007	0.00000E+000	5.07100E-001	9.66492E-004	5	..........a	-327.66
	154	31	5.26963E-001	1.43018E-007	0.00000E+000	5.27100E-001	9.48592E-004	5	..........a	-327.66
	156	31.4	5.47010E-001	1.48531E-007	0.00000E+000	5.47100E-001	9.91792E-004	5	..........a	-327.66
	158	31.8	5.67006E-001	1.54016E-007	0.00000E+000	5.67100E-001	9.72992E-004	5	..........a	-327.66
	160	32.2	5.87001E-001	1.59361E-007	0.00000E+000	5.87100E-001	9.65692E-004	5	..........a	-327.66
	162	32.6	6.06999E-001	1.64749E-007	0.00000E+000	6.07100E-001	9.74292E-004	5	..........a	-327.66
	164	33	6.26982E-001	1.70163E-007	0.00000E+000	6.27100E-001	9.72392E-004	5	..........a	-327.66
	166	33.4	6.46974E-001	1.75580E-007	0.00000E+000	6.47100E-001	9.80892E-004	5	..........a	-327.66
	168	33.8	6.66958E-001	1.81004E-007	0.00000E+000	6.67100E-001	9.72092E-004	5	..........a	-327.66
	170	34.2	6.86957E-001	1.86568E-007	0.00000E+000	6.87100E-001	9.76492E-004	5	..........a	-327.66
	172	34.6	7.06950E-001	1.92382E-007	0.00000E+000	7.07100E-001	9.71392E-004	5	..........a	-327.66
	174	35	7.26971E-001	1.98618E-007	0.00000E+000	7.27100E-001	9.65992E-004	5	..........a	-327.66
	176	35.4	7.46959E-001	2.05498E-007	0.00000E+000	7.47100E-001	9.74492E-004	5	..........a	-327.66
	178	35.8	7.66943E-001	2.13281E-007	0.00000E+000	7.67100E-001	9.75992E-004	5	..........a	-327.66
	180	36.2	7.86923E-001	2.22154E-007	0.00000E+000	7.87100E-001	9.77192E-004	5	..........a	-327.66
	181	36.4	7.96917E-001	2.27137E-007	0.00000E+000	7.97100E-001	9.73692E-004	5	..........a	-327.66
CURVE2	TABLE
	Pt	T	Vf	Im	Vu	Sig	Ach	IERange	Over	Temp
	#	s	V vs. Ref.	A	V	V	V	#	bits	deg C
	182	36.6	7.89948E-001	1.98048E-007	0.00000E+000	7.90000E-001	9.79492E-004	5	..........a	-327.66
	185	37.2	7.59876E-001	1.44771E-007	0.00000E+000	7.60000E-001	9.76392E-004	5	..........a	-327.66
	188	37.8	7.29909E-001	1.18748E-007	0.00000E+000	7.30000E-001	9.88392E-004	5	..........a	-327.66
	191	38.4	6.99892E-001	1.01912E-007	0.00000E+000	7.00000E-001	9.62092E-004	5	..........a	-327.66
	194	39	6.69948E-001	8.93123E-008	0.00000E+000	6.70000E-001	9.77492E-004	5	..........a	-327.66
	197	39.6	6.39893E-001	7.89400E-008	0.00000E+000	6.40000E-001	9.79092E-004	5	..........a	-327.66
	200	40.2	6.09942E-001	7.00471E-008	0.00000E+000	6.10000E-001	9.80892E-004	5	..........a	-327.66
	203	40.8	5.79969E-001	6.21996E-008	0.00000E+000	5.80000E-001	9.74092E-004	5	..........a	-327.66
	206	41.4	5.50009E-001	5.51779E-008	0.00000E+000	5.50000E-001	9.73192E-004	5	..........a	-327.66
	209	42	5.19955E-001	4.86060E-008	0.00000E+000	5.20000E-001	9.70792E-004	5	..........a	-327.66
	212	42.6	4.89960E-001	4.25630E-008	0.00000E+000	4.90000E-001	9.82392E-004	5	..........a	-327.66
	215	43.2	4.59971E-001	3.66701E-008	0.00000E+000	4.60000E-001	9.68292E-004	5	..........a	-327.66
	218	43.8	4.30005E-001	3.07767E-008	0.00000E+000	4.30000E-001	9.69192E-004	5	..........a	-327.66
	221	44.4	3.99994E-001	2.48720E-008	0.00000E+000	4.00000E-001	9.78392E-004	5	..........a	-327.66
	224	45	3.70032E-001	1.90090E-008	0.00000E+000	3.70000E-001	9.69792E-004	5	..........a	-327.66
	227	45.6	3.40045E-001	1.31386E-008	0.00000E+000	3.40000E-001	9.59392E-004	5	..........a	-327.66
	230	46.2	3.10002E-001	7.17997E-009	0.00000E+000	3.10000E-001	9.91392E-004	5	..........a	-327.66
	233	46.8	2.79967E-001	1.18470E-009	0.00000E+000	2.80000E-001	9.79092E-004	5	..........a	-327.66
	236	47.4	2.50040E-001	-4.88771E-009	0.00000E+000	2.50000E-001	9.68492E-004	5	..........a	-327.66
	239	48	2.20032E-001	-1.05522E-008	0.00000E+000	2.20000E-001	9.49092E-004	5	..........a	-327.66
	242	48.6	1.90114E-001	-1.51909E-008	0.00000E+000	1.90000E-001	9.61492E-004	5	..........a	-327.66
	245	49.2	1.60048E-001	-1.80582E-008	0.00000E+000	1.60000E-001	9.81192E-004	5	..........a	-327.66
	248	49.8	1.30096E-001	-1.91350E-008	0.00000E+000	1.30000E-001	9.72692E-004	5	..........a	-327.66
	251	50.4	1.00109E-001	-1.93145E-008	0.00000E+000	1.00000E-001	9.56092E-004	5	..........a	-327.66
	254	51	7.00483E-002	-1.96452E-008	0.00000E+000	7.00000E-002	9.68192E-004	5	..........a	-327.66
	257	51.6	4.01223E-002	-2.06939E-008	0.00000E+000	4.00000E-002	9.71592E-004	5	..........a	-327.66
	260	52.2	1.00895E-002	-2.23682E-008	0.00000E+000	1.00000E-002	9.61792E-004	5	..........a	-327.66
	263	52.8	-1.99122E-002	-2.51070E-008	0.00000E+000	-2.00000E-002	9.53492E-004	5	..........a	-327.66
	266	53.4	-4.99190E-002	-2.70888E-008	0.00000E+000	-5.00000E-002	9.72192E-004	5	..........a	-327.66
	269	54	-7.99485E-002	-2.99293E-008	0.00000E+000	-8.00000E-002	9.63992E-004	5	..........a	-327.66
[...]
	1034	207	6.69965E-001	8.06086E-008	0.00000E+000	6.70000E-001	9.89392E-004	5	..........a	-327.66
	1035	207.2	6.59911E-001	7.72821E-008	0.00000E+000	6.60000E-001	9.84192E-004	5	..........a	-327.66
	1036	207.4	6.49911E-001	7.41211E-008	0.00000E+000	6.50000E-001	9.69292E-004	5	..........a	-327.66
	1037	207.6	6.39901E-001	7.10790E-008	0.00000E+000	6.40000E-001	9.98992E-004	5	..........a	-327.66
	1038	207.8	6.30031E-001	6.81892E-008	0.00000E+000	6.30000E-001	9.92192E-004	5	..........a	-327.66
	1039	208	6.19914E-001	6.53889E-008	0.00000E+000	6.20000E-001	9.84392E-004	5	..........a	-327.66
	1040	208.2	6.09966E-001	6.26840E-008	0.00000E+000	6.10000E-001	9.75492E-004	5	..........a	-327.66
	1041	208.4	5.99956E-001	6.01318E-008	0.00000E+000	6.00000E-001	9.81592E-004	5	..........a	-327.66
	1042	208.6	5.90015E-001	5.77136E-008	0.00000E+000	5.90000E-001	9.99892E-004	5	..........a	-327.66
	1043	208.8	5.79980E-001	5.54103E-008	0.00000E+000	5.80000E-001	9.62692E-004	5	..........a	-327.66
	1044	209	5.69940E-001	5.31376E-008	0.00000E+000	5.70000E-001	9.75592E-004	5	..........a	-327.66
	1045	209.2	5.59919E-001	5.09141E-008	0.00000E+000	5.60000E-001	9.91292E-004	5	..........a	-327.66
	1046	209.4	5.50016E-001	4.87080E-008	0.00000E+000	5.50000E-001	9.72092E-004	5	..........a	-327.66
	1047	209.6	5.39976E-001	4.65213E-008	0.00000E+000	5.40000E-001	9.73292E-004	5	..........a	-327.66
	1048	209.8	5.29952E-001	4.44189E-008	0.00000E+000	5.30000E-001	9.80292E-004	5	..........a	-327.66
	1049	210	5.19963E-001	4.24448E-008	0.00000E+000	5.20000E-001	1.00329E-003	5	..........a	-327.66
	1050	210.2	5.09982E-001	4.04442E-008	0.00000E+000	5.10000E-001	9.96392E-004	5	..........a	-327.66
	1051	210.4	5.00003E-001	3.86284E-008	0.00000E+000	5.00000E-001	9.68392E-004	5	..........a	-327.66
	1052	210.6	4.89975E-001	3.68206E-008	0.00000E+000	4.90000E-001	9.82692E-004	5	..........a	-327.66
	1053	210.8	4.79935E-001	3.50142E-008	0.00000E+000	4.80000E-001	9.87292E-004	5	..........a	-327.66
	1054	211	4.70014E-001	3.31263E-008	0.00000E+000	4.70000E-001	9.83992E-004	5	..........a	-327.66
	1055	211.2	4.59987E-001	3.12619E-008	0.00000E+000	4.60000E-001	9.67892E-004	5	..........a	-327.66
	1056	211.4	4.50056E-001	2.93308E-008	0.00000E+000	4.50000E-001	9.70992E-004	5	..........a	-327.66
	1057	211.6	4.39941E-001	2.74517E-008	0.00000E+000	4.40000E-001	9.76492E-004	5	..........a	-327.66
	1058	211.8	4.30009E-001	2.55365E-008	0.00000E+000	4.30000E-001	9.83892E-004	5	..........a	-327.66
	1059	212	4.20002E-001	2.36109E-008	0.00000E+000	4.20000E-001	9.85592E-004	5	..........a	-327.66
	1060	212.2	4.09994E-001	2.16554E-008	0.00000E+000	4.10000E-001	9.91392E-004	5	..........a	-327.66
	1061	212.4	4.00003E-001	1.96625E-008	0.00000E+000	4.00000E-001	9.84292E-004	5	..........a	-327.66
	1062	212.6	3.90024E-001	1.77238E-008	0.00000E+000	3.90000E-001	9.72092E-004	5	..........a	-327.66
	1063	212.8	3.80059E-001	1.58151E-008	0.00000E+000	3.80000E-001	9.81492E-004	5	..........a	-327.66
	1064	213	3.70030E-001	1.38810E-008	0.00000E+000	3.70000E-001	9.96292E-004	5	..........a	-327.66
	1065	213.2	3.60007E-001	1.19436E-008	0.00000E+000	3.60000E-001	9.80992E-004	5	..........a	-327.66
	1066	213.4	3.50022E-001	9.99021E-009	0.00000E+000	3.50000E-001	9.91692E-004	5	..........a	-327.66
	1067	213.6	3.40045E-001	8.06288E-009	0.00000E+000	3.40000E-001	9.94692E-004	5	..........a	-327.66
	1068	213.8	3.30029E-001	6.09682E-009	0.00000E+000	3.30000E-001	9.92892E-004	5	..........a	-327.66
	1069	214	3.20028E-001	4.14303E-009	0.00000E+000	3.20000E-001	9.98092E-004	5	..........a	-327.66
	1070	214.2	3.09994E-001	2.13241E-009	0.00000E+000	3.10000E-001	9.89192E-004	5	..........a	-327.66
	1071	214.4	3.00055E-001	1.02580E-010	0.00000E+000	3.00000E-001	9.77592E-004	5	..........a	-327.66
	1072	214.6	2.90005E-001	-1.95104E-009	0.00000E+000	2.90000E-001	9.95992E-004	5	..........a	-327.66
	1073	214.8	2.80043E-001	-3.98199E-009	0.00000E+000	2.80000E-001	9.91592E-004	5	..........a	-327.66
	1074	215	2.70099E-001	-6.07854E-009	0.00000E+000	2.70000E-001	9.77692E-004	5	..........a	-327.66
	1075	215.2	2.60076E-001	-8.10548E-009	0.00000E+000	2.60000E-001	9.82292E-004	5	..........a	-327.66
	1076	215.4	2.50040E-001	-1.01783E-008	0.00000E+000	2.50000E-001	9.78692E-004	5	..........a	-327.66
	1077	215.6	2.40043E-001	-1.21810E-008	0.00000E+000	2.40000E-001	9.95392E-004	5	..........a	-327.66
	1078	215.8	2.30047E-001	-1.40973E-008	0.00000E+000	2.30000E-001	9.97092E-004	5	..........a	-327.66
	1079	216	2.20045E-001	-1.59367E-008	0.00000E+000	2.20000E-001	9.73892E-004	5	..........a	-327.66
	1080	216.2	2.10021E-001	-1.75728E-008	0.00000E+000	2.10000E-001	9.69692E-004	5	..........a	-327.66
	1081	216.4	2.00092E-001	-1.90113E-008	0.00000E+000	2.00000E-001	9.73992E-004	5	..........a	-327.66
	1082	216.6	1.90123E-001	-2.02713E-008	0.00000E+000	1.90000E-001	9.76192E-004	5	..........a	-327.66
	1083	216.8	1.80112E-001	-2.13032E-008	0.00000E+000	1.80000E-001	9.70992E-004	5	..........a	-327.66
	1084	217	1.70096E-001	-2.20076E-008	0.00000E+000	1.70000E-001	9.67692E-004	5	..........a	-327.66
	1085	217.2	1.60061E-001	-2.25223E-008	0.00000E+000	1.60000E-001	1.00089E-003	5	..........a	-327.66
	1086	217.4	1.50078E-001	-2.28510E-008	0.00000E+000	1.50000E-001	9.97492E-004	5	..........a	-327.66
	1087	217.6	1.40122E-001	-2.30383E-008	0.00000E+000	1.40000E-001	9.92592E-004	5	..........a	-327.66
	1088	217.8	1.30081E-001	-2.30326E-008	0.00000E+000	1.30000E-001	9.77492E-004	5	..........a	-327.66
	1089	218	1.20070E-001	-2.29925E-008	0.00000E+000	1.20000E-001	9.86792E-004	5	..........a	-327.66
	1090	218.2	1.10110E-001	-2.29209E-008	0.00000E+000	1.10000E-001	9.86992E-004	5	..........a	-327.66
	1091	218.4	1.00129E-001	-2.28636E-008	0.00000E+000	1.00000E-001	9.85792E-004	5	..........a	-327.66
	1092	218.6	9.00883E-002	-2.28523E-008	0.00000E+000	9.00000E-002	9.77492E-004	5	..........a	-327.66
	1093	218.8	8.00530E-002	-2.29107E-008	0.00000E+000	8.00000E-002	9.85692E-004	5	..........a	-327.66
	1094	219	7.00437E-002	-2.30815E-008	0.00000E+000	7.00000E-002	9.85692E-004	5	..........a	-327.66
	1095	219.2	6.01134E-002	-2.33730E-008	0.00000E+000	6.00000E-002	9.62192E-004	5	..........a	-327.66
	1096	219.4	5.00731E-002	-2.37825E-008	0.00000E+000	5.00000E-002	9.83492E-004	5	..........a	-327.66
	1097	219.6	4.00562E-002	-2.42578E-008	0.00000E+000	4.00000E-002	9.94692E-004	5	..........a	-327.66
	1098	219.8	3.00946E-002	-2.48323E-008	0.00000E+000	3.00000E-002	9.90792E-004	5	..........a	-327.66
	1099	220	2.01668E-002	-2.54730E-008	0.00000E+000	2.00000E-002	9.73192E-004	5	..........a	-327.66
	1100	220.2	1.01137E-002	-2.61849E-008	0.00000E+000	1.00000E-002	9.94492E-004	5	..........a	-327.66
	1101	220.4	4.56917E-005	-2.69145E-008	0.00000E+000	7.45058E-009	9.99192E-004	5	..........a	-327.66
	1102	220.6	-9.91036E-003	-2.76643E-008	0.00000E+000	-1.00000E-002	1.00249E-003	5	..........a	-327.66
	1103	220.8	-1.99002E-002	-2.84202E-008	0.00000E+000	-2.00000E-002	9.73292E-004	5	..........a	-327.66
	1104	221	-2.99013E-002	-2.92888E-008	0.00000E+000	-3.00000E-002	9.83192E-004	5	..........a	-327.66
	1105	221.2	-3.98998E-002	-3.01877E-008	0.00000E+000	-4.00000E-002	9.86992E-004	5	..........a	-327.66
	1106	221.4	-4.98934E-002	-3.11155E-008	0.00000E+000	-5.00000E-002	9.86892E-004	5	..........a	-327.66
	1107	221.6	-5.99016E-002	-3.21233E-008	0.00000E+000	-6.00000E-002	9.69392E-004	5	..........a	-327.66
	1108	221.8	-6.99141E-002	-3.31034E-008	0.00000E+000	-7.00000E-002	9.83992E-004	5	..........a	-327.66
	1109	222	-7.99141E-002	-3.41473E-008	0.00000E+000	-8.00000E-002	9.95592E-004	5	..........a	-327.66
	1110	222.2	-8.98840E-002	-3.52056E-008	0.00000E+000	-9.00000E-002	9.89092E-004	5	..........a	-327.66
	1111	222.4	-9.98941E-002	-3.62689E-008	0.00000E+000	-1.00000E-001	9.78092E-004	5	..........a	-327.66
	1112	222.6	-1.09942E-001	-3.73012E-008	0.00000E+000	-1.10000E-001	9.78392E-004	5	..........a	-327.66
	1113	222.8	-1.19931E-001	-3.83963E-008	0.00000E+000	-1.20000E-001	9.80392E-004	5	..........a	-327.66
	1114	223	-1.29899E-001	-3.95478E-008	0.00000E+000	-1.30000E-001	9.69392E-004	5	..........a	-327.66
	1115	223.2	-1.39903E-001	-4.06431E-008	0.00000E+000	-1.40000E-001	9.70692E-004	5	..........a	-327.66
	1116	223.4	-1.49939E-001	-4.17609E-008	0.00000E+000	-1.50000E-001	9.75692E-004	5	..........a	-327.66
	1117	223.6	-1.59973E-001	-4.28423E-008	0.00000E+000	-1.60000E-001	9.76392E-004	5	..........a	-327.66
	1118	223.8	-1.69893E-001	-4.39737E-008	0.00000E+000	-1.70000E-001	9.79692E-004	5	..........a	-327.66
	1119	224	-1.79883E-001	-4.50701E-008	0.00000E+000	-1.80000E-001	9.75092E-004	5	..........a	-327.66
	1120	224.2	-1.89915E-001	-4.62575E-008	0.00000E+000	-1.90000E-001	9.60992E-004	5	..........a	-327.66