File: data/raw/batch_data/20240509_G_GM0016_HL03_E02_CV50.DTA
EXPLAIN
TAG	CV
TITLE	LABEL	Cyclic Voltammetry	Test &Identifier
DATE	LABEL	5/9/2024	Date
TIME	LABEL	12:44:04	Time
NOTES	NOTES	1	&Notes...

PSTAT	PSTAT	REF600P-43058	Potentiostat
VINIT	POTEN	0.00000E+000	T	Initial &E (V)
VLIMIT1	POTEN	8.00000E-001	F	Scan Limit &1 (V)
VLIMIT2	POTEN	-6.00000E-001	F	Scan Limit &2 (V)
VFINAL	POTEN	0.00000E+000	T	Final &E (V)
SCANRATE	QUANT	4.99999E+001	&Scan Rate (mV/s)
STEPSIZE	QUANT	1.00000E+001	St&ep Size (mV)
CYCLES	IQUANT	4	C&ycles (#)
IMODE	SELECTOR	0	I/E Range &Mode
IRANGE	QUANT	1.00000E-005	&Max Current (mA)
AREA	QUANT	1.00000E+000	Electrode &Area (cm^2)
ELECTRODETYPE	SELECTOR	0	Electrode Type
STRIPPING	TOGGLE	F	Used for Stripping
POLARITY	TOGGLE	F	Signal Polarity
CONDIT	TWOPARAM	F	1.50000E+001	0.00000E+000	Conditionin&g	Time(s)	E(V)
DELAY	TWOPARAM	T	1.00000E+001	0.00000E+000	Init. De&lay	Time(s)	Stab.(mV/s)
EQDELAY	QUANT	1.00000E+001	Equil. &Time (s)
IRCOMP	SELECTOR	0	IRCom&p
PFCOR	QUANT	5.00000E+001	PF Corr. (ohm)
SAMPLINGMODE	SELECTOR	1	Sampling &Mode
OCVCURVE	TABLE	39
	Pt	T	Vf	Vm	Ach	Over	Temp
	#	s	V vs. Ref.	V	V	bits	deg C
	0	0.258333	-1.22479E-001	-1.22479E-001	2.41992E-004	..........a	-327.66
	1	0.516667	-1.22480E-001	-1.22528E-001	2.47192E-004	..........a	-327.66
	2	0.775	-1.22486E-001	-1.22579E-001	2.59192E-004	..........a	-327.66
	3	1.03333	-1.22503E-001	-1.22636E-001	2.55659E-004	..........a	-327.66
	4	1.29167	-1.22534E-001	-1.22678E-001	2.54059E-004	..........a	-327.66
	5	1.55	-1.22577E-001	-1.22731E-001	2.65192E-004	..........a	-327.66
	6	1.80833	-1.22626E-001	-1.22783E-001	2.56926E-004	..........a	-327.66
	7	2.06667	-1.22676E-001	-1.22832E-001	2.58526E-004	..........a	-327.66
	8	2.325	-1.22727E-001	-1.22885E-001	2.57326E-004	..........a	-327.66
	9	2.58333	-1.22778E-001	-1.22935E-001	2.39326E-004	..........a	-327.66
	10	2.84167	-1.22829E-001	-1.22984E-001	2.55192E-004	..........a	-327.66
	11	3.1	-1.22880E-001	-1.23032E-001	2.46859E-004	..........a	-327.66
	12	3.35833	-1.22930E-001	-1.23067E-001	2.52126E-004	..........a	-327.66
	13	3.61667	-1.22978E-001	-1.23123E-001	2.41392E-004	..........a	-327.66
	14	3.875	-1.23025E-001	-1.23168E-001	2.63659E-004	..........a	-327.66
	15	4.13333	-1.23071E-001	-1.23217E-001	2.51526E-004	..........a	-327.66
	16	4.39167	-1.23118E-001	-1.23264E-001	2.35926E-004	..........a	-327.66
	17	4.65	-1.23165E-001	-1.23308E-001	2.64926E-004	..........a	-327.66
	18	4.90833	-1.23212E-001	-1.23361E-001	2.62992E-004	..........a	-327.66
	19	5.16667	-1.23259E-001	-1.23388E-001	2.63926E-004	..........a	-327.66
	20	5.425	-1.23305E-001	-1.23444E-001	2.45926E-004	..........a	-327.66
	21	5.68333	-1.23350E-001	-1.23488E-001	2.54059E-004	..........a	-327.66
	22	5.94167	-1.23394E-001	-1.23538E-001	2.69126E-004	..........a	-327.66
	23	6.2	-1.23439E-001	-1.23574E-001	2.39392E-004	..........a	-327.66
	24	6.45833	-1.23485E-001	-1.23624E-001	2.64526E-004	..........a	-327.66
	25	6.71667	-1.23530E-001	-1.23677E-001	2.54592E-004	..........a	-327.66
	26	6.975	-1.23575E-001	-1.23706E-001	2.61126E-004	..........a	-327.66
	27	7.23333	-1.23621E-001	-1.23764E-001	2.45192E-004	..........a	-327.66
	28	7.49167	-1.23666E-001	-1.23804E-001	2.50126E-004	..........a	-327.66
	29	7.75	-1.23711E-001	-1.23852E-001	2.45859E-004	..........a	-327.66
	30	8.00833	-1.23756E-001	-1.23890E-001	2.46992E-004	..........a	-327.66
	31	8.26667	-1.23801E-001	-1.23940E-001	2.59792E-004	..........a	-327.66
	32	8.525	-1.23846E-001	-1.23998E-001	2.58059E-004	..........a	-327.66
	33	8.78333	-1.23892E-001	-1.24027E-001	2.55526E-004	..........a	-327.66
	34	9.04167	-1.23938E-001	-1.24091E-001	2.48459E-004	..........a	-327.66
	35	9.3	-1.23986E-001	-1.24138E-001	2.46392E-004	..........a	-327.66
	36	9.5583	-1.24034E-001	-1.24181E-001	2.60392E-004	..........a	-327.66
	37	9.8167	-1.24083E-001	-1.24238E-001	2.63926E-004	..........a	-327.66
	38	10.075	-1.24132E-001	-1.24277E-001	2.51926E-004	..........a	-327.66
EOC	QUANT	-0.124132	Open Circuit (V)
PSTATMODEL	IQUANT	7	Pstat Model
PSTATSECTION	LABEL	REF600P-43058	Pstat Section
PSTATSERIALNO	LABEL	43058	Pstat Serial Number
CTRLMODE	IQUANT	1	Control Mode
ELECTROMETER	IQUANT	0	RE=0 or CS=1
IESTAB	IQUANT	2	I/E Stability
CASPEED	IQUANT	4	Control Amp Speed
CONVENTION	IQUANT	1	Current Convention
ICHRANGE	IQUANT	2	Ich Range
ICHRANGEMODE	TOGGLE	F	Ich Auto Range
ICHOFFSETENABLE	TOGGLE	F	Ich Offset Enable
ICHOFFSET	QUANT	0	Ich Offset (V)
ICHFILTER	IQUANT	2	Ich Filter
VCHRANGE	IQUANT	2	Vch Range
VCHRANGEMODE	TOGGLE	F	Vch Auto Range
VCHOFFSETENABLE	TOGGLE	F	Vch Offset Enable
VCHOFFSET	QUANT	0	Vch Offset (V)
VCHFILTER	IQUANT	2	Vch Filter
ACHRANGE	IQUANT	2	Ach Range
ACHOFFSETENABLE	TOGGLE	F	Ach Offset Enable
ACHOFFSET	QUANT	0	Ach Offset (V)
ACHFILTER	IQUANT	1	Ach Filter
IERANGELOWERLIMIT	IQUANT	1	I/E Range Lower Limit
IERANGEMODE	TOGGLE	T	I/E AutoRange
IERANGE	IQUANT	4	I/E Range
POSFEEDENABLE	TOGGLE	F	Positive Feedback IR Comp
POSFEEDRESISTANCE	QUANT	0	Positive Feedback Resistance (ohm)
ACHSELECT	IQUANT	4	Ach Select
SENSECABLEID	IQUANT	7	Sense Cable ID
PWRCABLEID	IQUANT	7	Power Cable ID
DCCALDATE	LABEL	3/22/2024	DC Calibration Date
ACCALDATE	LABEL	3/22/2024	AC Calibration Date
THERMOSELECT	IQUANT	1	Thermo Select
FRAMEWORKVERSION	LABEL	7.8.4	Framework Version
INSTRUMENTVERSION	LABEL	4.42	Instrument Version
CURVE1	TABLE
	Pt	T	Vf	Im	Vu	Sig	Ach	IERange	Over	Temp
	#	s	V vs. Ref.	A	V	V	V	#	bits	deg C
	0	0.2	-1.24120E-001	7.64635E-010	0.00000E+000	-1.24150E-001	1.01559E-003	5	..........a	-327.66
	3	0.8	-9.41228E-002	3.06200E-009	0.00000E+000	-9.41500E-002	1.06349E-003	5	..........a	-327.66
	6	1.4	-6.41075E-002	4.60847E-009	0.00000E+000	-6.41500E-002	1.02319E-003	5	..........a	-327.66
	9	2	-3.40390E-002	6.10731E-009	0.00000E+000	-3.41500E-002	1.03159E-003	5	..........a	-327.66
	12	2.6	-4.11586E-003	7.75493E-009	0.00000E+000	-4.15000E-003	1.02469E-003	5	..........a	-327.66
	15	3.2	2.58939E-002	9.71637E-009	0.00000E+000	2.58500E-002	1.04439E-003	5	..........a	-327.66
	18	3.8	5.58924E-002	1.19772E-008	0.00000E+000	5.58500E-002	1.03839E-003	5	..........a	-327.66
	21	4.4	8.59745E-002	1.47809E-008	0.00000E+000	8.58500E-002	1.02429E-003	5	..........a	-327.66
	24	5	1.15959E-001	1.85350E-008	0.00000E+000	1.15850E-001	1.01479E-003	5	..........a	-327.66
	27	5.6	1.45863E-001	2.37493E-008	0.00000E+000	1.45850E-001	1.04709E-003	5	..........a	-327.66
	30	6.2	1.75843E-001	4.38238E-008	0.00000E+000	1.75850E-001	1.02319E-003	5	..........a	-327.66
	33	6.8	2.05946E-001	4.22226E-008	0.00000E+000	2.05850E-001	1.03209E-003	5	..........a	-327.66
	36	7.4	2.35862E-001	4.18808E-008	0.00000E+000	2.35850E-001	1.00399E-003	5	..........a	-327.66
	39	8	2.65842E-001	4.65110E-008	0.00000E+000	2.65850E-001	1.02489E-003	5	..........a	-327.66
	42	8.6	2.95845E-001	5.14897E-008	0.00000E+000	2.95850E-001	1.01579E-003	5	..........a	-327.66
	45	9.2	3.25960E-001	5.65916E-008	0.00000E+000	3.25850E-001	1.03529E-003	5	..........a	-327.66
	48	9.8	3.55862E-001	6.25169E-008	0.00000E+000	3.55850E-001	1.01189E-003	5	..........a	-327.66
	51	10.4	3.85816E-001	6.94536E-008	0.00000E+000	3.85850E-001	1.02349E-003	5	..........a	-327.66
	54	11	4.15822E-001	7.73165E-008	0.00000E+000	4.15850E-001	1.05369E-003	5	..........a	-327.66
	57	11.6	4.45893E-001	8.60381E-008	0.00000E+000	4.45850E-001	1.01609E-003	5	..........a	-327.66
	60	12.2	4.75697E-001	9.51210E-008	0.00000E+000	4.75850E-001	1.03479E-003	5	..........a	-327.66
	63	12.8	5.05716E-001	1.04717E-007	0.00000E+000	5.05850E-001	1.02829E-003	5	..........a	-327.66
	66	13.4	5.35779E-001	1.14815E-007	0.00000E+000	5.35850E-001	1.04939E-003	5	..........a	-327.66
	69	14	5.65889E-001	1.25270E-007	0.00000E+000	5.65850E-001	1.02499E-003	5	..........a	-327.66
	72	14.6	5.95784E-001	1.35944E-007	0.00000E+000	5.95850E-001	1.00789E-003	5	..........a	-327.66
	75	15.2	6.25741E-001	1.47009E-007	0.00000E+000	6.25850E-001	1.03499E-003	5	..........a	-327.66
	78	15.8	6.55748E-001	1.58887E-007	0.00000E+000	6.55850E-001	1.03129E-003	5	..........a	-327.66
	81	16.4	6.85828E-001	1.71946E-007	0.00000E+000	6.85850E-001	1.02329E-003	5	..........a	-327.66
	84	17	7.15696E-001	1.86338E-007	0.00000E+000	7.15850E-001	1.01459E-003	5	..........a	-327.66
	87	17.6	7.45694E-001	2.02034E-007	0.00000E+000	7.45850E-001	1.02289E-003	5	..........a	-327.66
	90	18.2	7.75720E-001	2.19103E-007	0.00000E+000	7.75850E-001	1.03199E-003	5	..........a	-327.66
	93	18.8	7.85688E-001	1.90736E-007	0.00000E+000	7.85850E-001	1.04199E-003	5	..........a	-327.66
	96	19.4	7.55774E-001	1.27923E-007	0.00000E+000	7.55850E-001	1.02529E-003	5	..........a	-327.66
	99	20	7.25838E-001	9.44118E-008	0.00000E+000	7.25850E-001	1.03829E-003	5	..........a	-327.66
	102	20.6	6.95774E-001	7.23129E-008	0.00000E+000	6.95850E-001	1.01359E-003	5	..........a	-327.66
	105	21.2	6.65764E-001	5.62404E-008	0.00000E+000	6.65850E-001	1.03409E-003	5	..........a	-327.66
	108	21.8	6.35785E-001	4.39798E-008	0.00000E+000	6.35850E-001	1.02099E-003	5	..........a	-327.66
	111	22.4	6.05935E-001	3.42429E-008	0.00000E+000	6.05850E-001	1.03529E-003	5	..........a	-327.66
	114	23	5.75821E-001	2.63832E-008	0.00000E+000	5.75850E-001	9.88692E-004	5	..........a	-327.66
	117	23.6	5.45839E-001	1.98245E-008	0.00000E+000	5.45850E-001	1.02109E-003	5	..........a	-327.66
	120	24.2	5.15842E-001	1.42195E-008	0.00000E+000	5.15850E-001	1.02449E-003	5	..........a	-327.66
	123	24.8	4.85936E-001	9.26063E-009	0.00000E+000	4.85850E-001	1.03519E-003	5	..........a	-327.66
	126	25.4	4.55842E-001	4.72690E-009	0.00000E+000	4.55850E-001	9.96692E-004	5	..........a	-327.66
	129	26	4.25819E-001	4.74604E-010	0.00000E+000	4.25850E-001	1.03039E-003	5	..........a	-327.66
	132	26.6	3.95866E-001	-3.76712E-009	0.00000E+000	3.95850E-001	1.00279E-003	5	..........a	-327.66
	135	27.2	3.65958E-001	-8.00654E-009	0.00000E+000	3.65850E-001	1.01469E-003	5	..........a	-327.66
	138	27.8	3.35885E-001	-1.25233E-008	0.00000E+000	3.35850E-001	1.00269E-003	5	..........a	-327.66
	141	28.4	3.05868E-001	-1.76631E-008	0.00000E+000	3.05850E-001	1.00739E-003	5	..........a	-327.66
	144	29	2.75896E-001	-2.37577E-008	0.00000E+000	2.75850E-001	9.89292E-004	5	..........a	-327.66
	147	29.6	2.46008E-001	-3.05319E-008	0.00000E+000	2.45850E-001	1.04519E-003	5	..........a	-327.66
	150	30.2	2.15891E-001	-3.70758E-008	0.00000E+000	2.15850E-001	1.03179E-003	5	..........a	-327.66
	153	30.8	1.85924E-001	-4.12308E-008	0.00000E+000	1.85850E-001	1.02839E-003	5	..........a	-327.66
	156	31.4	1.55945E-001	-4.11908E-008	0.00000E+000	1.55850E-001	1.00639E-003	5	..........a	-327.66
	159	32	1.25968E-001	-3.71179E-008	0.00000E+000	1.25850E-001	1.04839E-003	5	..........a	-327.66
	162	32.6	9.59117E-002	-3.15405E-008	0.00000E+000	9.58500E-002	1.03619E-003	5	..........a	-327.66
	165	33.2	6.59795E-002	-2.67295E-008	0.00000E+000	6.58500E-002	1.01349E-003	5	..........a	-327.66
	168	33.8	3.59410E-002	-2.43086E-008	0.00000E+000	3.58500E-002	1.01169E-003	5	..........a	-327.66
	171	34.4	5.98734E-003	-2.33061E-008	0.00000E+000	5.85000E-003	1.02559E-003	5	..........a	-327.66
	174	35	-2.40975E-002	-2.30162E-008	0.00000E+000	-2.41500E-002	1.00669E-003	5	..........a	-327.66
	177	35.6	-5.41066E-002	-2.30436E-008	0.00000E+000	-5.41500E-002	1.01969E-003	5	..........a	-327.66
	180	36.2	-8.40838E-002	-2.30001E-008	0.00000E+000	-8.41500E-002	1.02429E-003	5	..........a	-327.66
	183	36.8	-1.14008E-001	-2.42250E-008	0.00000E+000	-1.14150E-001	1.01949E-003	5	..........a	-327.66
	186	37.4	-1.44100E-001	-2.61138E-008	0.00000E+000	-1.44150E-001	1.02799E-003	5	..........a	-327.66
	189	38	-1.74069E-001	-2.89022E-008	0.00000E+000	-1.74150E-001	1.01699E-003	5	..........a	-327.66
	192	38.6	-2.04113E-001	-3.21180E-008	0.00000E+000	-2.04150E-001	1.00579E-003	5	..........a	-327.66
	195	39.2	-2.33997E-001	-3.48658E-008	0.00000E+000	-2.34150E-001	1.01999E-003	5	..........a	-327.66
	198	39.8	-2.64064E-001	-3.71185E-008	0.00000E+000	-2.64150E-001	1.01209E-003	5	..........a	-327.66
	201	40.4	-2.94006E-001	-3.92904E-008	0.00000E+000	-2.94150E-001	1.02009E-003	5	..........a	-327.66
	204	41	-3.24040E-001	-4.19704E-008	0.00000E+000	-3.24150E-001	9.92392E-004	5	..........a	-327.66
	207	41.6	-3.54013E-001	-4.38244E-008	0.00000E+000	-3.54150E-001	1.02329E-003	5	..........a	-327.66
	210	42.2	-3.84071E-001	-4.58092E-008	0.00000E+000	-3.84150E-001	1.02289E-003	5	..........a	-327.66
	213	42.8	-4.14023E-001	-4.81065E-008	0.00000E+000	-4.14150E-001	1.01489E-003	5	..........a	-327.66
	216	43.4	-4.43981E-001	-5.04486E-008	0.00000E+000	-4.44150E-001	1.02509E-003	5	..........a	-327.66
	219	44	-4.73958E-001	-5.34124E-008	0.00000E+000	-4.74150E-001	1.00589E-003	5	..........a	-327.66
	222	44.6	-5.03988E-001	-5.65478E-008	0.00000E+000	-5.04150E-001	1.01799E-003	5	..........a	-327.66
	225	45.2	-5.34001E-001	-6.03236E-008	0.00000E+000	-5.34150E-001	1.02069E-003	5	..........a	-327.66
	228	45.8	-5.64003E-001	-6.47958E-008	0.00000E+000	-5.64150E-001	1.01669E-003	5	..........a	-327.66
	231	46.4	-5.93979E-001	-7.04407E-008	0.00000E+000	-5.94150E-001	1.02259E-003	5	..........a	-327.66
	232	46.6	-6.03979E-001	-7.26484E-008	0.00000E+000	-6.04150E-001	1.00109E-003	5	..........a	-327.66
CURVE2	TABLE
	Pt	T	Vf	Im	Vu	Sig	Ach	IERange	Over	Temp
	#	s	V vs. Ref.	A	V	V	V	#	bits	deg C
	233	46.8	-5.89861E-001	-6.07427E-008	0.00000E+000	-5.90000E-001	1.02289E-003	5	..........a	-327.66
	236	47.4	-5.59883E-001	-4.74070E-008	0.00000E+000	-5.60000E-001	1.01009E-003	5	..........a	-327.66
	239	48	-5.29837E-001	-3.91693E-008	0.00000E+000	-5.30000E-001	9.90792E-004	5	..........a	-327.66
	242	48.6	-4.99831E-001	-3.31683E-008	0.00000E+000	-5.00000E-001	1.02839E-003	5	..........a	-327.66
	245	49.2	-4.69863E-001	-2.75160E-008	0.00000E+000	-4.70000E-001	1.00319E-003	5	..........a	-327.66
	248	49.8	-4.39943E-001	-2.29483E-008	0.00000E+000	-4.40000E-001	1.01849E-003	5	..........a	-327.66
	251	50.4	-4.09859E-001	-1.83694E-008	0.00000E+000	-4.10000E-001	1.01829E-003	5	..........a	-327.66
	254	51	-3.79860E-001	-1.44593E-008	0.00000E+000	-3.80000E-001	1.00839E-003	5	..........a	-327.66
	257	51.6	-3.49873E-001	-1.09446E-008	0.00000E+000	-3.50000E-001	9.93992E-004	5	..........a	-327.66
	260	52.2	-3.19887E-001	-7.83387E-009	0.00000E+000	-3.20000E-001	1.02139E-003	5	..........a	-327.66
	263	52.8	-2.89879E-001	-5.05756E-009	0.00000E+000	-2.90000E-001	1.02169E-003	5	..........a	-327.66
	266	53.4	-2.59849E-001	-2.37032E-009	0.00000E+000	-2.60000E-001	1.00429E-003	5	..........a	-327.66
	269	54	-2.29965E-001	2.15455E-010	0.00000E+000	-2.30000E-001	1.02589E-003	5	..........a	-327.66
	272	54.6	-2.00071E-001	2.62515E-009	0.00000E+000	-2.00000E-001	1.02449E-003	5	..........a	-327.66
	275	55.2	-1.69897E-001	5.01822E-009	0.00000E+000	-1.70000E-001	1.01689E-003	5	..........a	-327.66
	278	55.8	-1.39867E-001	7.17911E-009	0.00000E+000	-1.40000E-001	1.01049E-003	5	..........a	-327.66
	281	56.4	-1.09985E-001	9.29781E-009	0.00000E+000	-1.10000E-001	1.03579E-003	5	..........a	-327.66
	284	57	-8.00084E-002	1.13622E-008	0.00000E+000	-8.00000E-002	1.02369E-003	5	..........a	-327.66
	287	57.6	-4.99527E-002	1.34892E-008	0.00000E+000	-5.00000E-002	1.01979E-003	5	..........a	-327.66
	290	58.2	-1.99223E-002	1.57329E-008	0.00000E+000	-2.00000E-002	1.03399E-003	5	..........a	-327.66
	293	58.8	1.00682E-002	1.81579E-008	0.00000E+000	1.00000E-002	1.01159E-003	5	..........a	-327.66
	296	59.4	3.99843E-002	2.08443E-008	0.00000E+000	4.00000E-002	1.04149E-003	5	..........a	-327.66
	299	60	6.99618E-002	2.39903E-008	0.00000E+000	7.00000E-002	1.04989E-003	5	..........a	-327.66
	302	60.6	1.00116E-001	2.75621E-008	0.00000E+000	1.00000E-001	1.01859E-003	5	..........a	-327.66
	305	61.2	1.30035E-001	3.22161E-008	0.00000E+000	1.30000E-001	1.01599E-003	5	..........a	-327.66
	308	61.8	1.60030E-001	3.58333E-008	0.00000E+000	1.60000E-001	1.00409E-003	5	..........a	-327.66
	311	62.4	1.90093E-001	4.01785E-008	0.00000E+000	1.90000E-001	1.02289E-003	5	..........a	-327.66
	314	63	2.20093E-001	4.40035E-008	0.00000E+000	2.20000E-001	1.02469E-003	5	..........a	-327.66
	317	63.6	2.49956E-001	4.62907E-008	0.00000E+000	2.50000E-001	1.02769E-003	5	..........a	-327.66
	320	64.2	2.79951E-001	4.79594E-008	0.00000E+000	2.80000E-001	1.02939E-003	5	..........a	-327.66
	323	64.8	3.09996E-001	5.01323E-008	0.00000E+000	3.10000E-001	1.00909E-003	5	..........a	-327.66
	326	65.4	3.40057E-001	5.29829E-008	0.00000E+000	3.40000E-001	1.00679E-003	5	..........a	-327.66
	329	66	3.70019E-001	5.64617E-008	0.00000E+000	3.70000E-001	1.02639E-003	5	..........a	-327.66
	332	66.6	3.99965E-001	6.04970E-008	0.00000E+000	4.00000E-001	1.01829E-003	5	..........a	-327.66
	335	67.2	4.29972E-001	6.52287E-008	0.00000E+000	4.30000E-001	1.00499E-003	5	..........a	-327.66
	338	67.8	4.59990E-001	7.09753E-008	0.00000E+000	4.60000E-001	1.01679E-003	5	..........a	-327.66
	341	68.4	4.89972E-001	7.80201E-008	0.00000E+000	4.90000E-001	1.02269E-003	5	..........a	-327.66
	344	69	5.19950E-001	8.64414E-008	0.00000E+000	5.20000E-001	1.00269E-003	5	..........a	-327.66
	347	69.6	5.50013E-001	9.57250E-008	0.00000E+000	5.50000E-001	1.02709E-003	5	..........a	-327.66
	350	70.2	5.79988E-001	1.05195E-007	0.00000E+000	5.80000E-001	1.02629E-003	5	..........a	-327.66
	353	70.8	6.09920E-001	1.14833E-007	0.00000E+000	6.10000E-001	1.02279E-003	5	..........a	-327.66
	356	71.4	6.39858E-001	1.25237E-007	0.00000E+000	6.40000E-001	1.02799E-003	5	..........a	-327.66
	359	72	6.69956E-001	1.37193E-007	0.00000E+000	6.70000E-001	1.01629E-003	5	..........a	-327.66
[...]
	964	193	4.79944E-001	-1.98091E-010	0.00000E+000	4.80000E-001	1.01369E-003	5	..........a	-327.66
	967	193.6	4.50059E-001	-4.75562E-009	0.00000E+000	4.50000E-001	1.01599E-003	5	..........a	-327.66
	970	194.2	4.20055E-001	-8.92903E-009	0.00000E+000	4.20000E-001	1.00429E-003	5	..........a	-327.66
	973	194.8	3.90063E-001	-1.29229E-008	0.00000E+000	3.90000E-001	1.03949E-003	5	..........a	-327.66
	976	195.4	3.60005E-001	-1.70467E-008	0.00000E+000	3.60000E-001	1.00419E-003	5	..........a	-327.66
	979	196	3.30039E-001	-2.18019E-008	0.00000E+000	3.30000E-001	1.00909E-003	5	..........a	-327.66
	982	196.6	3.00121E-001	-2.74023E-008	0.00000E+000	3.00000E-001	1.00269E-003	5	..........a	-327.66
	985	197.2	2.70082E-001	-3.41935E-008	0.00000E+000	2.70000E-001	1.00379E-003	5	..........a	-327.66
	988	197.8	2.40077E-001	-4.17971E-008	0.00000E+000	2.40000E-001	1.00879E-003	5	..........a	-327.66
	991	198.4	2.10042E-001	-4.84266E-008	0.00000E+000	2.10000E-001	1.03139E-003	5	..........a	-327.66
	994	199	1.80148E-001	-5.17203E-008	0.00000E+000	1.80000E-001	9.89792E-004	5	..........a	-327.66
	997	199.6	1.50106E-001	-5.00976E-008	0.00000E+000	1.50000E-001	1.05239E-003	5	..........a	-327.66
	1000	200.2	1.20075E-001	-4.39307E-008	0.00000E+000	1.20000E-001	1.00959E-003	5	..........a	-327.66
	1003	200.8	9.01159E-002	-3.59401E-008	0.00000E+000	9.00000E-002	9.96692E-004	5	..........a	-327.66
	1006	201.4	6.01403E-002	-3.03949E-008	0.00000E+000	6.00000E-002	9.99092E-004	5	..........a	-327.66
	1009	202	3.00598E-002	-2.76475E-008	0.00000E+000	3.00000E-002	1.02549E-003	5	..........a	-327.66
	1012	202.6	4.76917E-005	-2.62653E-008	0.00000E+000	7.45058E-009	1.00179E-003	5	..........a	-327.66
	1015	203.2	-2.99129E-002	-2.49677E-008	0.00000E+000	-3.00000E-002	9.97092E-004	5	..........a	-327.66
	1018	203.8	-5.98640E-002	-2.47890E-008	0.00000E+000	-6.00000E-002	1.01649E-003	5	..........a	-327.66
	1021	204.4	-8.98965E-002	-2.60681E-008	0.00000E+000	-9.00000E-002	1.00339E-003	5	..........a	-327.66
	1024	205	-1.19933E-001	-2.70387E-008	0.00000E+000	-1.20000E-001	1.01849E-003	5	..........a	-327.66
	1027	205.6	-1.49929E-001	-2.88801E-008	0.00000E+000	-1.50000E-001	1.01019E-003	5	..........a	-327.66
	1030	206.2	-1.79900E-001	-3.13561E-008	0.00000E+000	-1.80000E-001	1.02119E-003	5	..........a	-327.66
	1033	206.8	-2.09896E-001	-3.35093E-008	0.00000E+000	-2.10000E-001	1.00479E-003	5	..........a	-327.66
	1036	207.4	-2.39887E-001	-3.54726E-008	0.00000E+000	-2.40000E-001	1.02949E-003	5	..........a	-327.66
	1039	208	-2.69869E-001	-3.76003E-008	0.00000E+000	-2.70000E-001	1.00459E-003	5	..........a	-327.66
	1042	208.6	-2.99834E-001	-4.01324E-008	0.00000E+000	-3.00000E-001	1.00829E-003	5	..........a	-327.66
	1045	209.2	-3.29910E-001	-4.28873E-008	0.00000E+000	-3.30000E-001	1.00649E-003	5	..........a	-327.66
	1048	209.8	-3.59867E-001	-4.50105E-008	0.00000E+000	-3.60000E-001	1.03679E-003	5	..........a	-327.66
	1051	210.4	-3.89897E-001	-4.67075E-008	0.00000E+000	-3.90000E-001	1.01629E-003	5	..........a	-327.66
	1054	211	-4.19774E-001	-4.83102E-008	0.00000E+000	-4.20000E-001	9.93892E-004	5	..........a	-327.66
	1057	211.6	-4.49834E-001	-5.03247E-008	0.00000E+000	-4.50000E-001	9.85592E-004	5	..........a	-327.66
	1060	212.2	-4.79841E-001	-5.22188E-008	0.00000E+000	-4.80000E-001	1.00339E-003	5	..........a	-327.66
	1063	212.8	-5.09853E-001	-5.43498E-008	0.00000E+000	-5.10000E-001	1.00239E-003	5	..........a	-327.66
	1066	213.4	-5.39790E-001	-5.71752E-008	0.00000E+000	-5.40000E-001	9.76192E-004	5	..........a	-327.66
	1069	214	-5.69868E-001	-6.06410E-008	0.00000E+000	-5.70000E-001	9.88692E-004	5	..........a	-327.66
	1072	214.6	-5.99890E-001	-6.50537E-008	0.00000E+000	-6.00000E-001	9.84292E-004	5	..........a	-327.66
CURVE5	TABLE
	Pt	T	Vf	Im	Vu	Sig	Ach	IERange	Over	Temp
	#	s	V vs. Ref.	A	V	V	V	#	bits	deg C
	1073	214.8	-5.89862E-001	-5.57743E-008	0.00000E+000	-5.90000E-001	1.00999E-003	5	..........a	-327.66
	1074	215	-5.79808E-001	-4.99583E-008	0.00000E+000	-5.80000E-001	1.01349E-003	5	..........a	-327.66
	1075	215.2	-5.69849E-001	-4.55439E-008	0.00000E+000	-5.70000E-001	1.00939E-003	5	..........a	-327.66
	1076	215.4	-5.59859E-001	-4.20248E-008	0.00000E+000	-5.60000E-001	9.88292E-004	5	..........a	-327.66
	1077	215.6	-5.49861E-001	-3.90055E-008	0.00000E+000	-5.50000E-001	1.00539E-003	5	..........a	-327.66
	1078	215.8	-5.39803E-001	-3.63107E-008	0.00000E+000	-5.40000E-001	9.99492E-004	5	..........a	-327.66
	1079	216	-5.29839E-001	-3.40779E-008	0.00000E+000	-5.30000E-001	1.01299E-003	5	..........a	-327.66
	1080	216.2	-5.19903E-001	-3.18898E-008	0.00000E+000	-5.20000E-001	1.02309E-003	5	..........a	-327.66
	1081	216.4	-5.09848E-001	-2.99377E-008	0.00000E+000	-5.10000E-001	1.02479E-003	5	..........a	-327.66
	1082	216.6	-4.99831E-001	-2.81971E-008	0.00000E+000	-5.00000E-001	9.89192E-004	5	..........a	-327.66
	1083	216.8	-4.89854E-001	-2.64388E-008	0.00000E+000	-4.90000E-001	1.02329E-003	5	..........a	-327.66
	1084	217	-4.79850E-001	-2.48603E-008	0.00000E+000	-4.80000E-001	9.94392E-004	5	..........a	-327.66
	1085	217.2	-4.69856E-001	-2.34060E-008	0.00000E+000	-4.70000E-001	1.03129E-003	5	..........a	-327.66
	1086	217.4	-4.59807E-001	-2.19930E-008	0.00000E+000	-4.60000E-001	1.00869E-003	5	..........a	-327.66
	1087	217.6	-4.49846E-001	-2.06796E-008	0.00000E+000	-4.50000E-001	9.96192E-004	5	..........a	-327.66
	1088	217.8	-4.39884E-001	-1.94014E-008	0.00000E+000	-4.40000E-001	1.00979E-003	5	..........a	-327.66
	1089	218	-4.29892E-001	-1.81485E-008	0.00000E+000	-4.30000E-001	9.98592E-004	5	..........a	-327.66
	1090	218.2	-4.19759E-001	-1.68859E-008	0.00000E+000	-4.20000E-001	1.00659E-003	5	..........a	-327.66
	1091	218.4	-4.09860E-001	-1.57814E-008	0.00000E+000	-4.10000E-001	9.97092E-004	5	..........a	-327.66
	1092	218.6	-3.99861E-001	-1.46065E-008	0.00000E+000	-4.00000E-001	9.98992E-004	5	..........a	-327.66
	1093	218.8	-3.89873E-001	-1.35282E-008	0.00000E+000	-3.90000E-001	1.02349E-003	5	..........a	-327.66
	1094	219	-3.79848E-001	-1.24520E-008	0.00000E+000	-3.80000E-001	1.00039E-003	5	..........a	-327.66
	1095	219.2	-3.69854E-001	-1.14621E-008	0.00000E+000	-3.70000E-001	1.00289E-003	5	..........a	-327.66
	1096	219.4	-3.59935E-001	-1.04411E-008	0.00000E+000	-3.60000E-001	1.01699E-003	5	..........a	-327.66
	1097	219.6	-3.49878E-001	-9.43821E-009	0.00000E+000	-3.50000E-001	1.02049E-003	5	..........a	-327.66
	1098	219.8	-3.39874E-001	-8.46774E-009	0.00000E+000	-3.40000E-001	9.96592E-004	5	..........a	-327.66
	1099	220	-3.29953E-001	-7.55749E-009	0.00000E+000	-3.30000E-001	1.01179E-003	5	..........a	-327.66
	1100	220.2	-3.19884E-001	-6.61963E-009	0.00000E+000	-3.20000E-001	9.92592E-004	5	..........a	-327.66
	1101	220.4	-3.09915E-001	-5.73512E-009	0.00000E+000	-3.10000E-001	1.00439E-003	5	..........a	-327.66
	1102	220.6	-2.99847E-001	-4.79750E-009	0.00000E+000	-3.00000E-001	1.01739E-003	5	..........a	-327.66
	1103	220.8	-2.89854E-001	-3.91960E-009	0.00000E+000	-2.90000E-001	1.01789E-003	5	..........a	-327.66
	1104	221	-2.79848E-001	-3.04888E-009	0.00000E+000	-2.80000E-001	1.01319E-003	5	..........a	-327.66
	1105	221.2	-2.69886E-001	-2.19962E-009	0.00000E+000	-2.70000E-001	1.02229E-003	5	..........a	-327.66
	1106	221.4	-2.59864E-001	-1.37699E-009	0.00000E+000	-2.60000E-001	9.96192E-004	5	..........a	-327.66
	1107	221.6	-2.49900E-001	-5.46634E-010	0.00000E+000	-2.50000E-001	1.00039E-003	5	..........a	-327.66
	1108	221.8	-2.39939E-001	3.04648E-010	0.00000E+000	-2.40000E-001	1.00469E-003	5	..........a	-327.66
	1109	222	-2.30012E-001	1.11891E-009	0.00000E+000	-2.30000E-001	1.00679E-003	5	..........a	-327.66
	1110	222.2	-2.19883E-001	1.91502E-009	0.00000E+000	-2.20000E-001	9.92292E-004	5	..........a	-327.66
	1111	222.4	-2.09987E-001	2.72056E-009	0.00000E+000	-2.10000E-001	1.02869E-003	5	..........a	-327.66
	1112	222.6	-1.99983E-001	3.53539E-009	0.00000E+000	-2.00000E-001	9.93692E-004	5	..........a	-327.66
	1113	222.8	-1.89904E-001	4.34705E-009	0.00000E+000	-1.90000E-001	1.00969E-003	5	..........a	-327.66
	1114	223	-1.79941E-001	5.08954E-009	0.00000E+000	-1.80000E-001	1.01149E-003	5	..........a	-327.66
	1115	223.2	-1.69910E-001	5.89523E-009	0.00000E+000	-1.70000E-001	1.00529E-003	5	..........a	-327.66
	1116	223.4	-1.60003E-001	6.67788E-009	0.00000E+000	-1.60000E-001	1.01079E-003	5	..........a	-327.66
	1117	223.6	-1.50074E-001	7.44687E-009	0.00000E+000	-1.50000E-001	1.01409E-003	5	..........a	-327.66
	1118	223.8	-1.39947E-001	8.19146E-009	0.00000E+000	-1.40000E-001	1.01479E-003	5	..........a	-327.66
	1119	224	-1.30015E-001	8.94640E-009	0.00000E+000	-1.30000E-001	1.01639E-003	5	..........a	-327.66
	1120	224.2	-1.19952E-001	9.68296E-009	0.00000E+000	-1.20000E-001	1.02809E-003	5	..........a	-327.66