File: data/raw/batch_data/20240321_K_GM0016_HL03_E03_CV50.DTA
EXPLAIN
TAG	CV
TITLE	LABEL	Cyclic Voltammetry	Test &Identifier
DATE	LABEL	3/21/2024	Date
TIME	LABEL	16:54:47	Time
NOTES	NOTES	1	&Notes...

PSTAT	PSTAT	REF600P-43058	Potentiostat
VINIT	POTEN	0.00000E+000	T	Initial &E (V)
VLIMIT1	POTEN	-6.00000E-001	F	Scan Limit &1 (V)
VLIMIT2	POTEN	8.00000E-001	F	Scan Limit &2 (V)
VFINAL	POTEN	0.00000E+000	T	Final &E (V)
SCANRATE	QUANT	4.99999E+001	&Scan Rate (mV/s)
STEPSIZE	QUANT	1.00000E+001	St&ep Size (mV)
CYCLES	IQUANT	4	C&ycles (#)
IMODE	SELECTOR	1	I/E Range &Mode
IRANGE	QUANT	1.00000E-005	&Max Current (mA)
AREA	QUANT	1.00000E+000	Electrode &Area (cm^2)
ELECTRODETYPE	SELECTOR	0	Electrode Type
STRIPPING	TOGGLE	F	Used for Stripping
POLARITY	TOGGLE	F	Signal Polarity
CONDIT	TWOPARAM	F	1.50000E+001	0.00000E+000	Conditionin&g	Time(s)	E(V)
DELAY	TWOPARAM	T	1.00000E+001	0.00000E+000	Init. De&lay	Time(s)	Stab.(mV/s)
EQDELAY	QUANT	1.00000E+001	Equil. &Time (s)
IRCOMP	SELECTOR	0	IRCom&p
PFCOR	QUANT	5.00000E+001	PF Corr. (ohm)
SAMPLINGMODE	SELECTOR	1	Sampling &Mode
OCVCURVE	TABLE	39
	Pt	T	Vf	Vm	Ach	Over	Temp
	#	s	V vs. Ref.	V	V	bits	deg C
	0	0.258333	4.42178E-001	4.42178E-001	2.25022E-004	..........a	-327.66
	1	0.516667	4.42147E-001	4.40558E-001	2.22289E-004	..........a	-327.66
	2	0.775	4.41957E-001	4.39037E-001	2.24622E-004	..........a	-327.66
	3	1.03333	4.41421E-001	4.37549E-001	2.29689E-004	..........a	-327.66
	4	1.29167	4.40459E-001	4.36031E-001	2.33356E-004	..........a	-327.66
	5	1.55	4.39166E-001	4.34517E-001	2.31222E-004	..........a	-327.66
	6	1.80833	4.37704E-001	4.33108E-001	2.23089E-004	..........a	-327.66
	7	2.06667	4.36194E-001	4.31752E-001	2.30956E-004	..........a	-327.66
	8	2.325	4.34706E-001	4.30469E-001	2.31289E-004	..........a	-327.66
	9	2.58333	4.33276E-001	4.29310E-001	2.24422E-004	..........a	-327.66
	10	2.84167	4.31917E-001	4.28023E-001	2.43622E-004	..........a	-327.66
	11	3.1	4.30619E-001	4.26716E-001	2.21022E-004	..........a	-327.66
	12	3.35833	4.29358E-001	4.25630E-001	2.41622E-004	..........a	-327.66
	13	3.61667	4.28104E-001	4.23770E-001	2.19422E-004	..........a	-327.66
	14	3.875	4.26833E-001	4.23324E-001	2.39222E-004	..........a	-327.66
	15	4.13333	4.25567E-001	4.22348E-001	2.25489E-004	..........a	-327.66
	16	4.39167	4.24387E-001	4.21331E-001	2.16956E-004	..........a	-327.66
	17	4.65	4.23328E-001	4.20284E-001	2.27022E-004	..........a	-327.66
	18	4.90833	4.22344E-001	4.19325E-001	2.31622E-004	..........a	-327.66
	19	5.16667	4.21372E-001	4.18416E-001	2.47356E-004	..........a	-327.66
	20	5.425	4.20398E-001	4.17413E-001	2.18222E-004	..........a	-327.66
	21	5.68333	4.19429E-001	4.16570E-001	2.21956E-004	..........a	-327.66
	22	5.94167	4.18474E-001	4.15623E-001	2.23622E-004	..........a	-327.66
	23	6.2	4.17539E-001	4.14768E-001	2.25822E-004	..........a	-327.66
	24	6.45833	4.16622E-001	4.13918E-001	2.25222E-004	..........a	-327.66
	25	6.71667	4.15726E-001	4.13101E-001	2.29622E-004	..........a	-327.66
	26	6.975	4.14853E-001	4.12290E-001	2.22156E-004	..........a	-327.66
	27	7.23333	4.14004E-001	4.11535E-001	2.26022E-004	..........a	-327.66
	28	7.49167	4.13179E-001	4.10771E-001	2.27356E-004	..........a	-327.66
	29	7.75	4.12381E-001	4.10129E-001	2.33489E-004	..........a	-327.66
	30	8.00833	4.11611E-001	4.09360E-001	2.23289E-004	..........a	-327.66
	31	8.26667	4.10873E-001	4.08802E-001	2.35222E-004	..........a	-327.66
	32	8.525	4.10162E-001	4.08014E-001	2.43356E-004	..........a	-327.66
	33	8.78333	4.09469E-001	4.07325E-001	2.32889E-004	..........a	-327.66
	34	9.04167	4.08782E-001	4.06690E-001	2.33289E-004	..........a	-327.66
	35	9.3	4.08094E-001	4.06043E-001	2.24356E-004	..........a	-327.66
	36	9.5583	4.07417E-001	4.05598E-001	2.35022E-004	..........a	-327.66
	37	9.8167	4.06769E-001	4.04866E-001	2.35956E-004	..........a	-327.66
	38	10.075	4.06151E-001	4.04258E-001	2.33156E-004	..........a	-327.66
EOC	QUANT	0.4061515	Open Circuit (V)
PSTATMODEL	IQUANT	7	Pstat Model
PSTATSECTION	LABEL	REF600P-43058	Pstat Section
PSTATSERIALNO	LABEL	43058	Pstat Serial Number
CTRLMODE	IQUANT	1	Control Mode
ELECTROMETER	IQUANT	0	RE=0 or CS=1
IESTAB	IQUANT	2	I/E Stability
CASPEED	IQUANT	4	Control Amp Speed
CONVENTION	IQUANT	1	Current Convention
ICHRANGE	IQUANT	2	Ich Range
ICHRANGEMODE	TOGGLE	F	Ich Auto Range
ICHOFFSETENABLE	TOGGLE	F	Ich Offset Enable
ICHOFFSET	QUANT	0	Ich Offset (V)
ICHFILTER	IQUANT	2	Ich Filter
VCHRANGE	IQUANT	2	Vch Range
VCHRANGEMODE	TOGGLE	F	Vch Auto Range
VCHOFFSETENABLE	TOGGLE	F	Vch Offset Enable
VCHOFFSET	QUANT	0	Vch Offset (V)
VCHFILTER	IQUANT	2	Vch Filter
ACHRANGE	IQUANT	2	Ach Range
ACHOFFSETENABLE	TOGGLE	F	Ach Offset Enable
ACHOFFSET	QUANT	0	Ach Offset (V)
ACHFILTER	IQUANT	1	Ach Filter
IERANGELOWERLIMIT	IQUANT	1	I/E Range Lower Limit
IERANGEMODE	TOGGLE	F	I/E AutoRange
IERANGE	IQUANT	4	I/E Range
POSFEEDENABLE	TOGGLE	F	Positive Feedback IR Comp
POSFEEDRESISTANCE	QUANT	0	Positive Feedback Resistance (ohm)
ACHSELECT	IQUANT	4	Ach Select
SENSECABLEID	IQUANT	7	Sense Cable ID
PWRCABLEID	IQUANT	7	Power Cable ID
DCCALDATE	LABEL	12/18/2023	DC Calibration Date
ACCALDATE	LABEL	12/18/2023	AC Calibration Date
THERMOSELECT	IQUANT	1	Thermo Select
FRAMEWORKVERSION	LABEL	7.8.4	Framework Version
INSTRUMENTVERSION	LABEL	4.42	Instrument Version
CURVE1	TABLE
	Pt	T	Vf	Im	Vu	Sig	Ach	IERange	Over	Temp
	#	s	V vs. Ref.	A	V	V	V	#	bits	deg C
	0	0.2	4.06087E-001	2.34757E-011	0.00000E+000	4.06150E-001	9.66122E-004	4	..........a	-327.66
	3	0.8	3.76006E-001	-2.08900E-011	0.00000E+000	3.76150E-001	9.51222E-004	4	..........a	-327.66
	6	1.4	3.46205E-001	-4.02497E-011	0.00000E+000	3.46150E-001	9.49222E-004	4	..........a	-327.66
	9	2	3.16173E-001	-5.74334E-011	0.00000E+000	3.16150E-001	9.63822E-004	4	..........a	-327.66
	12	2.6	2.86125E-001	-7.28570E-011	0.00000E+000	2.86150E-001	9.84522E-004	4	..........a	-327.66
	15	3.2	2.56141E-001	-8.81576E-011	0.00000E+000	2.56150E-001	9.86722E-004	4	..........a	-327.66
	18	3.8	2.26216E-001	-1.01244E-010	0.00000E+000	2.26150E-001	9.63622E-004	4	..........a	-327.66
	21	4.4	1.96144E-001	-1.12128E-010	0.00000E+000	1.96150E-001	9.72622E-004	4	..........a	-327.66
	24	5	1.66189E-001	-1.20098E-010	0.00000E+000	1.66150E-001	9.70722E-004	4	..........a	-327.66
	27	5.6	1.36184E-001	-1.27547E-010	0.00000E+000	1.36150E-001	9.57922E-004	4	..........a	-327.66
	30	6.2	1.06256E-001	-1.32807E-010	0.00000E+000	1.06150E-001	9.52822E-004	4	..........a	-327.66
	33	6.8	7.61196E-002	-1.38829E-010	0.00000E+000	7.61500E-002	9.68222E-004	4	..........a	-327.66
	36	7.4	4.61667E-002	-1.44396E-010	0.00000E+000	4.61500E-002	9.71522E-004	4	..........a	-327.66
	39	8	1.62310E-002	-1.50971E-010	0.00000E+000	1.61500E-002	9.67322E-004	4	..........a	-327.66
	42	8.6	-1.38011E-002	-1.59913E-010	0.00000E+000	-1.38500E-002	9.73522E-004	4	..........a	-327.66
	45	9.2	-4.38051E-002	-1.69154E-010	0.00000E+000	-4.38500E-002	9.85022E-004	4	..........a	-327.66
	48	9.8	-7.38716E-002	-1.80854E-010	0.00000E+000	-7.38500E-002	9.76122E-004	4	..........a	-327.66
	51	10.4	-1.03871E-001	-1.93967E-010	0.00000E+000	-1.03850E-001	9.70322E-004	4	..........a	-327.66
	54	11	-1.33806E-001	-2.08173E-010	0.00000E+000	-1.33850E-001	9.78422E-004	4	..........a	-327.66
	57	11.6	-1.63842E-001	-2.24714E-010	0.00000E+000	-1.63850E-001	9.91722E-004	4	..........a	-327.66
	60	12.2	-1.93800E-001	-2.43957E-010	0.00000E+000	-1.93850E-001	9.79022E-004	4	..........a	-327.66
	63	12.8	-2.23785E-001	-2.61648E-010	0.00000E+000	-2.23850E-001	9.65522E-004	4	..........a	-327.66
	66	13.4	-2.53750E-001	-2.89961E-010	0.00000E+000	-2.53850E-001	9.70322E-004	4	..........a	-327.66
	69	14	-2.83765E-001	-3.13297E-010	0.00000E+000	-2.83850E-001	9.74322E-004	4	..........a	-327.66
	72	14.6	-3.13709E-001	-3.43188E-010	0.00000E+000	-3.13850E-001	9.88222E-004	4	..........a	-327.66
	75	15.2	-3.43787E-001	-3.79624E-010	0.00000E+000	-3.43850E-001	9.73522E-004	4	..........a	-327.66
	78	15.8	-3.73761E-001	-4.22954E-010	0.00000E+000	-3.73850E-001	9.72022E-004	4	..........a	-327.66
	81	16.4	-4.03776E-001	-4.68938E-010	0.00000E+000	-4.03850E-001	9.80722E-004	4	..........a	-327.66
	84	17	-4.33784E-001	-5.21626E-010	0.00000E+000	-4.33850E-001	9.77722E-004	4	..........a	-327.66
	87	17.6	-4.63757E-001	-5.83828E-010	0.00000E+000	-4.63850E-001	9.75022E-004	4	..........a	-327.66
	90	18.2	-4.93644E-001	-6.56519E-010	0.00000E+000	-4.93850E-001	9.84722E-004	4	..........a	-327.66
	93	18.8	-5.23760E-001	-7.46877E-010	0.00000E+000	-5.23850E-001	9.67422E-004	4	..........a	-327.66
	96	19.4	-5.53705E-001	-8.61612E-010	0.00000E+000	-5.53850E-001	9.67322E-004	4	..........a	-327.66
	99	20	-5.83761E-001	-1.01842E-009	0.00000E+000	-5.83850E-001	9.85522E-004	4	..........a	-327.66
	102	20.6	-5.93714E-001	-9.53186E-010	0.00000E+000	-5.93850E-001	9.94622E-004	4	..........a	-327.66
	105	21.2	-5.63782E-001	-6.07615E-010	0.00000E+000	-5.63850E-001	9.83722E-004	4	..........a	-327.66
	108	21.8	-5.33707E-001	-4.04237E-010	0.00000E+000	-5.33850E-001	9.74422E-004	4	..........a	-327.66
	111	22.4	-5.03763E-001	-2.66032E-010	0.00000E+000	-5.03850E-001	9.83722E-004	4	..........a	-327.66
	114	23	-4.73757E-001	-1.68476E-010	0.00000E+000	-4.73850E-001	9.70322E-004	4	..........a	-327.66
	117	23.6	-4.43791E-001	-9.42368E-011	0.00000E+000	-4.43850E-001	9.84222E-004	4	..........a	-327.66
	120	24.2	-4.13689E-001	-3.63086E-011	0.00000E+000	-4.13850E-001	9.76222E-004	4	..........a	-327.66
	123	24.8	-3.83815E-001	1.08282E-011	0.00000E+000	-3.83850E-001	9.73922E-004	4	..........a	-327.66
	126	25.4	-3.53805E-001	4.90587E-011	0.00000E+000	-3.53850E-001	9.76622E-004	4	..........a	-327.66
	129	26	-3.23784E-001	7.88098E-011	0.00000E+000	-3.23850E-001	9.76122E-004	4	..........a	-327.66
	132	26.6	-2.93667E-001	1.03581E-010	0.00000E+000	-2.93850E-001	1.00362E-003	4	..........a	-327.66
	135	27.2	-2.63796E-001	1.25501E-010	0.00000E+000	-2.63850E-001	9.85822E-004	4	..........a	-327.66
	138	27.8	-2.33804E-001	1.37654E-010	0.00000E+000	-2.33850E-001	9.85822E-004	4	..........a	-327.66
	141	28.4	-2.03804E-001	1.48770E-010	0.00000E+000	-2.03850E-001	9.72022E-004	4	..........a	-327.66
	144	29	-1.73791E-001	1.52709E-010	0.00000E+000	-1.73850E-001	9.71422E-004	4	..........a	-327.66
	147	29.6	-1.43799E-001	1.59585E-010	0.00000E+000	-1.43850E-001	9.76422E-004	4	..........a	-327.66
	150	30.2	-1.13987E-001	1.60558E-010	0.00000E+000	-1.13850E-001	9.94422E-004	4	..........a	-327.66
	153	30.8	-8.38623E-002	1.57410E-010	0.00000E+000	-8.38500E-002	9.81822E-004	4	..........a	-327.66
	156	31.4	-5.37552E-002	1.60961E-010	0.00000E+000	-5.38500E-002	9.65422E-004	4	..........a	-327.66
	159	32	-2.38480E-002	1.57652E-010	0.00000E+000	-2.38500E-002	9.78022E-004	4	..........a	-327.66
	162	32.6	6.16269E-003	1.58582E-010	0.00000E+000	6.15001E-003	9.77622E-004	4	..........a	-327.66
	165	33.2	3.62121E-002	1.61979E-010	0.00000E+000	3.61500E-002	9.74022E-004	4	..........a	-327.66
	168	33.8	6.55364E-002	1.61611E-010	0.00000E+000	6.61500E-002	9.67622E-004	4	..........a	-327.66
	171	34.4	9.61396E-002	1.62001E-010	0.00000E+000	9.61500E-002	9.79722E-004	4	..........a	-327.66
	174	35	1.26178E-001	1.65769E-010	0.00000E+000	1.26150E-001	9.82822E-004	4	..........a	-327.66
	177	35.6	1.56162E-001	1.68345E-010	0.00000E+000	1.56150E-001	9.55122E-004	4	..........a	-327.66
	180	36.2	1.86226E-001	1.73842E-010	0.00000E+000	1.86150E-001	9.72722E-004	4	..........a	-327.66
	183	36.8	2.16181E-001	1.81235E-010	0.00000E+000	2.16150E-001	9.69522E-004	4	..........a	-327.66
	186	37.4	2.46129E-001	1.87625E-010	0.00000E+000	2.46150E-001	9.77922E-004	4	..........a	-327.66
	189	38	2.76141E-001	1.95459E-010	0.00000E+000	2.76150E-001	9.77422E-004	4	..........a	-327.66
	192	38.6	3.06251E-001	2.01897E-010	0.00000E+000	3.06150E-001	9.71822E-004	4	..........a	-327.66
	195	39.2	3.36171E-001	2.07697E-010	0.00000E+000	3.36150E-001	9.77322E-004	4	..........a	-327.66
	198	39.8	3.66172E-001	2.13914E-010	0.00000E+000	3.66150E-001	9.67022E-004	4	..........a	-327.66
	201	40.4	3.96185E-001	2.17606E-010	0.00000E+000	3.96150E-001	9.72122E-004	4	..........a	-327.66
	204	41	4.26210E-001	2.21258E-010	0.00000E+000	4.26150E-001	9.80922E-004	4	..........a	-327.66
	207	41.6	4.56083E-001	2.28536E-010	0.00000E+000	4.56150E-001	9.91822E-004	4	..........a	-327.66
	210	42.2	4.85993E-001	2.36250E-010	0.00000E+000	4.86150E-001	9.93722E-004	4	..........a	-327.66
	213	42.8	5.16066E-001	2.44584E-010	0.00000E+000	5.16150E-001	9.87922E-004	4	..........a	-327.66
	216	43.4	5.46130E-001	2.57301E-010	0.00000E+000	5.46150E-001	9.69522E-004	4	..........a	-327.66
	219	44	5.76050E-001	2.70294E-010	0.00000E+000	5.76150E-001	9.89322E-004	4	..........a	-327.66
	222	44.6	6.06054E-001	2.87476E-010	0.00000E+000	6.06150E-001	9.79322E-004	4	..........a	-327.66
	225	45.2	6.36045E-001	3.08631E-010	0.00000E+000	6.36150E-001	9.77822E-004	4	..........a	-327.66
	228	45.8	6.66037E-001	3.34482E-010	0.00000E+000	6.66150E-001	9.82722E-004	4	..........a	-327.66
	231	46.4	6.96001E-001	3.67064E-010	0.00000E+000	6.96150E-001	9.66422E-004	4	..........a	-327.66
	234	47	7.26086E-001	4.07136E-010	0.00000E+000	7.26150E-001	9.80822E-004	4	..........a	-327.66
	237	47.6	7.56139E-001	4.58594E-010	0.00000E+000	7.56150E-001	9.78722E-004	4	..........a	-327.66
	240	48.2	7.86099E-001	5.23894E-010	0.00000E+000	7.86150E-001	9.59422E-004	4	..........a	-327.66
	241	48.4	7.96060E-001	5.50279E-010	0.00000E+000	7.96150E-001	9.87222E-004	4	..........a	-327.66
CURVE2	TABLE
	Pt	T	Vf	Im	Vu	Sig	Ach	IERange	Over	Temp
	#	s	V vs. Ref.	A	V	V	V	#	bits	deg C
	242	48.6	7.89856E-001	4.32721E-010	0.00000E+000	7.90000E-001	9.80522E-004	4	..........a	-327.66
	245	49.2	7.59969E-001	2.17079E-010	0.00000E+000	7.60000E-001	9.77722E-004	4	..........a	-327.66
	248	49.8	7.29995E-001	1.27254E-010	0.00000E+000	7.30000E-001	9.71922E-004	4	..........a	-327.66
	251	50.4	6.99969E-001	7.25646E-011	0.00000E+000	7.00000E-001	9.72922E-004	4	..........a	-327.66
	254	51	6.69879E-001	3.55262E-011	0.00000E+000	6.70000E-001	9.74922E-004	4	..........a	-327.66
	257	51.6	6.39920E-001	8.88214E-012	0.00000E+000	6.40000E-001	9.91222E-004	4	..........a	-327.66
	260	52.2	6.09915E-001	-1.21647E-011	0.00000E+000	6.10000E-001	9.66122E-004	4	..........a	-327.66
	263	52.8	5.80002E-001	-3.05134E-011	0.00000E+000	5.80000E-001	9.87422E-004	4	..........a	-327.66
	266	53.4	5.49950E-001	-4.35149E-011	0.00000E+000	5.50000E-001	9.81422E-004	4	..........a	-327.66
	269	54	5.19957E-001	-5.67234E-011	0.00000E+000	5.20000E-001	9.72222E-004	4	..........a	-327.66
	272	54.6	4.89981E-001	-6.93249E-011	0.00000E+000	4.90000E-001	9.82122E-004	4	..........a	-327.66
	275	55.2	4.60005E-001	-7.92302E-011	0.00000E+000	4.60000E-001	9.71122E-004	4	..........a	-327.66
	278	55.8	4.29978E-001	-8.78996E-011	0.00000E+000	4.30000E-001	9.76522E-004	4	..........a	-327.66
	281	56.4	4.00043E-001	-9.78770E-011	0.00000E+000	4.00000E-001	9.83322E-004	4	..........a	-327.66
	284	57	3.69992E-001	-1.05578E-010	0.00000E+000	3.70000E-001	9.71222E-004	4	..........a	-327.66
	287	57.6	3.40035E-001	-1.13939E-010	0.00000E+000	3.40000E-001	9.87122E-004	4	..........a	-327.66
	290	58.2	3.09987E-001	-1.21517E-010	0.00000E+000	3.10000E-001	9.90122E-004	4	..........a	-327.66
	293	58.8	2.79972E-001	-1.27649E-010	0.00000E+000	2.80000E-001	1.00002E-003	4	..........a	-327.66
	296	59.4	2.50000E-001	-1.33376E-010	0.00000E+000	2.50000E-001	9.81922E-004	4	..........a	-327.66
	299	60	2.19997E-001	-1.37943E-010	0.00000E+000	2.20000E-001	9.91422E-004	4	..........a	-327.66
	302	60.6	1.90008E-001	-1.40151E-010	0.00000E+000	1.90000E-001	9.88022E-004	4	..........a	-327.66
	305	61.2	1.59946E-001	-1.44062E-010	0.00000E+000	1.60000E-001	9.85122E-004	4	..........a	-327.66
	308	61.8	1.30058E-001	-1.46994E-010	0.00000E+000	1.30000E-001	9.69022E-004	4	..........a	-327.66
	311	62.4	1.00020E-001	-1.50784E-010	0.00000E+000	1.00000E-001	9.84522E-004	4	..........a	-327.66
	314	63	6.99876E-002	-1.56297E-010	0.00000E+000	7.00000E-002	9.78222E-004	4	..........a	-327.66
	317	63.6	4.00951E-002	-1.63728E-010	0.00000E+000	4.00000E-002	9.82922E-004	4	..........a	-327.66
	320	64.2	1.00442E-002	-1.72739E-010	0.00000E+000	1.00000E-002	9.62622E-004	4	..........a	-327.66
	323	64.8	-1.99468E-002	-1.82856E-010	0.00000E+000	-2.00000E-002	9.83422E-004	4	..........a	-327.66
	326	65.4	-5.00147E-002	-1.95611E-010	0.00000E+000	-5.00000E-002	9.91022E-004	4	..........a	-327.66
	329	66	-8.00219E-002	-2.09357E-010	0.00000E+000	-8.00000E-002	9.87322E-004	4	..........a	-327.66
	332	66.6	-1.10020E-001	-2.24279E-010	0.00000E+000	-1.10000E-001	9.63822E-004	4	..........a	-327.66
	335	67.2	-1.39880E-001	-2.40265E-010	0.00000E+000	-1.40000E-001	9.81522E-004	4	..........a	-327.66
	338	67.8	-1.69968E-001	-2.59275E-010	0.00000E+000	-1.70000E-001	9.86122E-004	4	..........a	-327.66
	341	68.4	-1.99996E-001	-2.80671E-010	0.00000E+000	-2.00000E-001	9.70722E-004	4	..........a	-327.66
	344	69	-2.29980E-001	-3.01849E-010	0.00000E+000	-2.30000E-001	9.71422E-004	4	..........a	-327.66
	347	69.6	-2.59853E-001	-3.28176E-010	0.00000E+000	-2.60000E-001	9.79522E-004	4	..........a	-327.66
	350	70.2	-2.89876E-001	-3.60460E-010	0.00000E+000	-2.90000E-001	9.87622E-004	4	..........a	-327.66
	353	70.8	-3.19863E-001	-3.97694E-010	0.00000E+000	-3.20000E-001	9.59322E-004	4	..........a	-327.66
	356	71.4	-3.49886E-001	-4.40257E-010	0.00000E+000	-3.50000E-001	9.77322E-004	4	..........a	-327.66
	359	72	-3.79880E-001	-4.86817E-010	0.00000E+000	-3.80000E-001	9.74422E-004	4	..........a	-327.66
[...]
	943	188.8	-5.79841E-001	-9.77562E-010	0.00000E+000	-5.80000E-001	9.80422E-004	4	..........a	-327.66
	946	189.4	-5.49903E-001	-6.68441E-010	0.00000E+000	-5.50000E-001	9.60422E-004	4	..........a	-327.66
	949	190	-5.19869E-001	-4.83053E-010	0.00000E+000	-5.20000E-001	9.79922E-004	4	..........a	-327.66
	952	190.6	-4.89838E-001	-3.49004E-010	0.00000E+000	-4.90000E-001	9.95222E-004	4	..........a	-327.66
	955	191.2	-4.59878E-001	-2.50649E-010	0.00000E+000	-4.60000E-001	9.72222E-004	4	..........a	-327.66
	958	191.8	-4.29884E-001	-1.68011E-010	0.00000E+000	-4.30000E-001	9.83222E-004	4	..........a	-327.66
	961	192.4	-3.99913E-001	-9.94320E-011	0.00000E+000	-4.00000E-001	9.79322E-004	4	..........a	-327.66
	964	193	-3.69902E-001	-4.12798E-011	0.00000E+000	-3.70000E-001	9.59122E-004	4	..........a	-327.66
	967	193.6	-3.39938E-001	8.59813E-012	0.00000E+000	-3.40000E-001	9.86722E-004	4	..........a	-327.66
	970	194.2	-3.09931E-001	5.01177E-011	0.00000E+000	-3.10000E-001	9.70422E-004	4	..........a	-327.66
	973	194.8	-2.79899E-001	8.59481E-011	0.00000E+000	-2.80000E-001	9.82322E-004	4	..........a	-327.66
	976	195.4	-2.49981E-001	1.16244E-010	0.00000E+000	-2.50000E-001	9.93222E-004	4	..........a	-327.66
	979	196	-2.19898E-001	1.36849E-010	0.00000E+000	-2.20000E-001	9.69522E-004	4	..........a	-327.66
	982	196.6	-1.90150E-001	1.53509E-010	0.00000E+000	-1.90000E-001	9.68922E-004	4	..........a	-327.66
	985	197.2	-1.59992E-001	1.58923E-010	0.00000E+000	-1.60000E-001	9.66222E-004	4	..........a	-327.66
	988	197.8	-1.29977E-001	1.65472E-010	0.00000E+000	-1.30000E-001	9.87922E-004	4	..........a	-327.66
	991	198.4	-9.99640E-002	1.66087E-010	0.00000E+000	-1.00000E-001	9.88822E-004	4	..........a	-327.66
	994	199	-6.99204E-002	1.66732E-010	0.00000E+000	-7.00000E-002	9.82022E-004	4	..........a	-327.66
	997	199.6	-3.99273E-002	1.66214E-010	0.00000E+000	-4.00000E-002	9.79822E-004	4	..........a	-327.66
	1000	200.2	-9.94436E-003	1.65977E-010	0.00000E+000	-1.00000E-002	9.76622E-004	4	..........a	-327.66
	1003	200.8	2.00934E-002	1.65386E-010	0.00000E+000	2.00000E-002	9.92122E-004	4	..........a	-327.66
	1006	201.4	5.00851E-002	1.65215E-010	0.00000E+000	5.00000E-002	9.69022E-004	4	..........a	-327.66
	1009	202	7.99986E-002	1.66757E-010	0.00000E+000	8.00000E-002	9.85422E-004	4	..........a	-327.66
	1012	202.6	1.10077E-001	1.70336E-010	0.00000E+000	1.10000E-001	9.88122E-004	4	..........a	-327.66
	1015	203.2	1.40106E-001	1.76075E-010	0.00000E+000	1.40000E-001	9.79622E-004	4	..........a	-327.66
	1018	203.8	1.70062E-001	1.82715E-010	0.00000E+000	1.70000E-001	9.71122E-004	4	..........a	-327.66
	1021	204.4	2.00032E-001	1.93223E-010	0.00000E+000	2.00000E-001	9.58922E-004	4	..........a	-327.66
	1024	205	2.29985E-001	2.04134E-010	0.00000E+000	2.30000E-001	9.94622E-004	4	..........a	-327.66
	1027	205.6	2.60047E-001	2.15507E-010	0.00000E+000	2.60000E-001	9.82822E-004	4	..........a	-327.66
	1030	206.2	2.90022E-001	2.24467E-010	0.00000E+000	2.90000E-001	9.66122E-004	4	..........a	-327.66
	1033	206.8	3.19938E-001	2.32655E-010	0.00000E+000	3.20000E-001	1.00842E-003	4	..........a	-327.66
	1036	207.4	3.49943E-001	2.38045E-010	0.00000E+000	3.50000E-001	9.92722E-004	4	..........a	-327.66
	1039	208	3.79983E-001	2.41049E-010	0.00000E+000	3.80000E-001	1.00342E-003	4	..........a	-327.66
	1042	208.6	4.09953E-001	2.43789E-010	0.00000E+000	4.10000E-001	1.00332E-003	4	..........a	-327.66
	1045	209.2	4.39886E-001	2.43533E-010	0.00000E+000	4.40000E-001	9.93222E-004	4	..........a	-327.66
	1048	209.8	4.69958E-001	2.45647E-010	0.00000E+000	4.70000E-001	9.97022E-004	4	..........a	-327.66
	1051	210.4	5.00013E-001	2.48396E-010	0.00000E+000	5.00000E-001	9.90322E-004	4	..........a	-327.66
	1054	211	5.29974E-001	2.52049E-010	0.00000E+000	5.30000E-001	9.73022E-004	4	..........a	-327.66
	1057	211.6	5.59924E-001	2.57763E-010	0.00000E+000	5.60000E-001	9.84022E-004	4	..........a	-327.66
	1060	212.2	5.89936E-001	2.66222E-010	0.00000E+000	5.90000E-001	9.98322E-004	4	..........a	-327.66
	1063	212.8	6.19986E-001	2.77309E-010	0.00000E+000	6.20000E-001	9.76322E-004	4	..........a	-327.66
	1066	213.4	6.49923E-001	2.92137E-010	0.00000E+000	6.50000E-001	9.70022E-004	4	..........a	-327.66
	1069	214	6.79987E-001	3.11047E-010	0.00000E+000	6.80000E-001	9.74522E-004	4	..........a	-327.66
	1072	214.6	7.09869E-001	3.37079E-010	0.00000E+000	7.10000E-001	9.63922E-004	4	..........a	-327.66
	1075	215.2	7.39980E-001	3.73940E-010	0.00000E+000	7.40000E-001	9.79722E-004	4	..........a	-327.66
	1078	215.8	7.69938E-001	4.26382E-010	0.00000E+000	7.70000E-001	9.79422E-004	4	..........a	-327.66
	1081	216.4	7.99829E-001	5.01351E-010	0.00000E+000	8.00000E-001	9.81722E-004	4	..........a	-327.66
CURVE5	TABLE
	Pt	T	Vf	Im	Vu	Sig	Ach	IERange	Over	Temp
	#	s	V vs. Ref.	A	V	V	V	#	bits	deg C
	1082	216.6	7.89970E-001	3.61922E-010	0.00000E+000	7.90000E-001	9.94222E-004	4	..........a	-327.66
	1083	216.8	7.79958E-001	2.80421E-010	0.00000E+000	7.80000E-001	9.68422E-004	4	..........a	-327.66
	1084	217	7.69948E-001	2.20220E-010	0.00000E+000	7.70000E-001	9.73322E-004	4	..........a	-327.66
	1085	217.2	7.59911E-001	1.80796E-010	0.00000E+000	7.60000E-001	9.75622E-004	4	..........a	-327.66
	1086	217.4	7.49871E-001	1.52713E-010	0.00000E+000	7.50000E-001	9.70722E-004	4	..........a	-327.66
	1087	217.6	7.39987E-001	1.22035E-010	0.00000E+000	7.40000E-001	1.00092E-003	4	..........a	-327.66
	1088	217.8	7.29997E-001	9.71045E-011	0.00000E+000	7.30000E-001	9.73322E-004	4	..........a	-327.66
	1089	218	7.19945E-001	8.00589E-011	0.00000E+000	7.20000E-001	9.91122E-004	4	..........a	-327.66
	1090	218.2	7.09876E-001	6.35422E-011	0.00000E+000	7.10000E-001	9.89222E-004	4	..........a	-327.66
	1091	218.4	6.99965E-001	5.12538E-011	0.00000E+000	7.00000E-001	9.80922E-004	4	..........a	-327.66
	1092	218.6	6.89918E-001	3.92713E-011	0.00000E+000	6.90000E-001	9.87222E-004	4	..........a	-327.66
	1093	218.8	6.79790E-001	3.11890E-011	0.00000E+000	6.80000E-001	9.55422E-004	4	..........a	-327.66
	1094	219	6.69875E-001	1.87985E-011	0.00000E+000	6.70000E-001	9.80922E-004	4	..........a	-327.66
	1095	219.2	6.60013E-001	1.04092E-011	0.00000E+000	6.60000E-001	9.87522E-004	4	..........a	-327.66
	1096	219.4	6.49901E-001	2.68290E-012	0.00000E+000	6.50000E-001	9.75822E-004	4	..........a	-327.66
	1097	219.6	6.39893E-001	-2.62530E-012	0.00000E+000	6.40000E-001	1.00062E-003	4	..........a	-327.66
	1098	219.8	6.29956E-001	-9.45456E-012	0.00000E+000	6.30000E-001	9.82822E-004	4	..........a	-327.66
	1099	220	6.19981E-001	-1.59038E-011	0.00000E+000	6.20000E-001	9.83222E-004	4	..........a	-327.66
	1100	220.2	6.09993E-001	-2.16740E-011	0.00000E+000	6.10000E-001	9.70222E-004	4	..........a	-327.66
	1101	220.4	5.99954E-001	-2.77253E-011	0.00000E+000	6.00000E-001	9.77822E-004	4	..........a	-327.66
	1102	220.6	5.89929E-001	-3.28595E-011	0.00000E+000	5.90000E-001	9.86022E-004	4	..........a	-327.66
	1103	220.8	5.80028E-001	-3.72596E-011	0.00000E+000	5.80000E-001	9.87022E-004	4	..........a	-327.66
	1104	221	5.69979E-001	-4.07288E-011	0.00000E+000	5.70000E-001	9.83822E-004	4	..........a	-327.66
	1105	221.2	5.59999E-001	-4.47679E-011	0.00000E+000	5.60000E-001	9.85622E-004	4	..........a	-327.66
	1106	221.4	5.49946E-001	-4.95021E-011	0.00000E+000	5.50000E-001	9.84422E-004	4	..........a	-327.66
	1107	221.6	5.40023E-001	-5.29232E-011	0.00000E+000	5.40000E-001	9.77122E-004	4	..........a	-327.66
	1108	221.8	5.30005E-001	-5.68314E-011	0.00000E+000	5.30000E-001	9.70022E-004	4	..........a	-327.66
	1109	222	5.19964E-001	-6.07825E-011	0.00000E+000	5.20000E-001	9.79422E-004	4	..........a	-327.66
	1110	222.2	5.09921E-001	-6.48397E-011	0.00000E+000	5.10000E-001	9.64822E-004	4	..........a	-327.66
	1111	222.4	5.00050E-001	-6.88108E-011	0.00000E+000	5.00000E-001	9.87622E-004	4	..........a	-327.66
	1112	222.6	4.89990E-001	-7.17510E-011	0.00000E+000	4.90000E-001	9.75522E-004	4	..........a	-327.66
	1113	222.8	4.79920E-001	-7.56961E-011	0.00000E+000	4.80000E-001	9.71522E-004	4	..........a	-327.66
	1114	223	4.69941E-001	-7.94012E-011	0.00000E+000	4.70000E-001	9.79522E-004	4	..........a	-327.66
	1115	223.2	4.60016E-001	-8.30864E-011	0.00000E+000	4.60000E-001	9.86622E-004	4	..........a	-327.66
	1116	223.4	4.50022E-001	-8.67225E-011	0.00000E+000	4.50000E-001	9.75522E-004	4	..........a	-327.66
	1117	223.6	4.39978E-001	-9.04167E-011	0.00000E+000	4.40000E-001	9.88522E-004	4	..........a	-327.66
	1118	223.8	4.29938E-001	-9.38368E-011	0.00000E+000	4.30000E-001	9.89022E-004	4	..........a	-327.66
	1119	224	4.20027E-001	-9.74669E-011	0.00000E+000	4.20000E-001	9.96322E-004	4	..........a	-327.66
	1120	224.2	4.09947E-001	-1.01105E-010	0.00000E+000	4.10000E-001	9.77722E-004	4	..........a	-327.66