File: data/raw/batch_data/20240424_ZA_GM0016_HL03_E07_CV50.DTA
EXPLAIN
TAG	CV
TITLE	LABEL	Cyclic Voltammetry	Test &Identifier
DATE	LABEL	4/24/2024	Date
TIME	LABEL	18:14:01	Time
NOTES	NOTES	1	&Notes...

PSTAT	PSTAT	REF600P-43058	Potentiostat
VINIT	POTEN	0.00000E+000	T	Initial &E (V)
VLIMIT1	POTEN	-6.00000E-001	F	Scan Limit &1 (V)
VLIMIT2	POTEN	8.00000E-001	F	Scan Limit &2 (V)
VFINAL	POTEN	0.00000E+000	T	Final &E (V)
SCANRATE	QUANT	4.99999E+001	&Scan Rate (mV/s)
STEPSIZE	QUANT	1.00000E+001	St&ep Size (mV)
CYCLES	IQUANT	4	C&ycles (#)
IMODE	SELECTOR	0	I/E Range &Mode
IRANGE	QUANT	1.00000E-005	&Max Current (mA)
AREA	QUANT	1.00000E+000	Electrode &Area (cm^2)
ELECTRODETYPE	SELECTOR	0	Electrode Type
STRIPPING	TOGGLE	F	Used for Stripping
POLARITY	TOGGLE	F	Signal Polarity
CONDIT	TWOPARAM	F	1.50000E+001	0.00000E+000	Conditionin&g	Time(s)	E(V)
DELAY	TWOPARAM	T	1.00000E+001	0.00000E+000	Init. De&lay	Time(s)	Stab.(mV/s)
EQDELAY	QUANT	1.00000E+001	Equil. &Time (s)
IRCOMP	SELECTOR	0	IRCom&p
PFCOR	QUANT	5.00000E+001	PF Corr. (ohm)
SAMPLINGMODE	SELECTOR	1	Sampling &Mode
OCVCURVE	TABLE	39
	Pt	T	Vf	Vm	Ach	Over	Temp
	#	s	V vs. Ref.	V	V	bits	deg C
	0	0.258333	-5.58859E-002	-5.58859E-002	2.33259E-004	..........a	-327.66
	1	0.516667	-5.58895E-002	-5.60745E-002	2.30392E-004	..........a	-327.66
	2	0.775	-5.59117E-002	-5.62569E-002	2.49726E-004	..........a	-327.66
	3	1.03333	-5.59749E-002	-5.64436E-002	2.42526E-004	..........a	-327.66
	4	1.29167	-5.60896E-002	-5.66292E-002	2.42592E-004	..........a	-327.66
	5	1.55	-5.62455E-002	-5.68119E-002	2.47059E-004	..........a	-327.66
	6	1.80833	-5.64235E-002	-5.69859E-002	2.41592E-004	..........a	-327.66
	7	2.06667	-5.66083E-002	-5.71678E-002	2.30726E-004	..........a	-327.66
	8	2.325	-5.67925E-002	-5.73561E-002	2.40459E-004	..........a	-327.66
	9	2.58333	-5.69750E-002	-5.75427E-002	2.14192E-004	..........a	-327.66
	10	2.84167	-5.71574E-002	-5.77088E-002	2.45992E-004	..........a	-327.66
	11	3.1	-5.73395E-002	-5.78802E-002	2.39992E-004	..........a	-327.66
	12	3.35833	-5.75191E-002	-5.80576E-002	2.36926E-004	..........a	-327.66
	13	3.61667	-5.76954E-002	-5.82328E-002	2.28926E-004	..........a	-327.66
	14	3.875	-5.78699E-002	-5.84030E-002	2.29792E-004	..........a	-327.66
	15	4.13333	-5.80436E-002	-5.85691E-002	2.37126E-004	..........a	-327.66
	16	4.39167	-5.82162E-002	-5.87346E-002	2.46392E-004	..........a	-327.66
	17	4.65	-5.83868E-002	-5.89007E-002	2.34659E-004	..........a	-327.66
	18	4.90833	-5.85552E-002	-5.90660E-002	2.47726E-004	..........a	-327.66
	19	5.16667	-5.87219E-002	-5.92295E-002	2.53326E-004	..........a	-327.66
	20	5.425	-5.88874E-002	-5.93914E-002	2.39126E-004	..........a	-327.66
	21	5.68333	-5.90520E-002	-5.95495E-002	2.52459E-004	..........a	-327.66
	22	5.94167	-5.92152E-002	-5.97073E-002	2.46059E-004	..........a	-327.66
	23	6.2	-5.93767E-002	-5.98654E-002	2.51126E-004	..........a	-327.66
	24	6.45833	-5.95364E-002	-6.00163E-002	2.46059E-004	..........a	-327.66
	25	6.71667	-5.96944E-002	-6.01803E-002	2.41792E-004	..........a	-327.66
	26	6.975	-5.98512E-002	-6.03204E-002	2.36926E-004	..........a	-327.66
	27	7.23333	-6.00065E-002	-6.04616E-002	2.30726E-004	..........a	-327.66
	28	7.49167	-6.01585E-002	-6.06027E-002	2.28126E-004	..........a	-327.66
	29	7.75	-6.03063E-002	-6.07440E-002	2.43992E-004	..........a	-327.66
	30	8.00833	-6.04503E-002	-6.08828E-002	2.27459E-004	..........a	-327.66
	31	8.26667	-6.05917E-002	-6.10107E-002	2.28859E-004	..........a	-327.66
	32	8.525	-6.07308E-002	-6.11427E-002	2.40392E-004	..........a	-327.66
	33	8.78333	-6.08673E-002	-6.12830E-002	2.30926E-004	..........a	-327.66
	34	9.04167	-6.10019E-002	-6.14135E-002	2.33126E-004	..........a	-327.66
	35	9.3	-6.11358E-002	-6.15488E-002	2.41059E-004	..........a	-327.66
	36	9.5583	-6.12699E-002	-6.16827E-002	2.32926E-004	..........a	-327.66
	37	9.8167	-6.14039E-002	-6.18090E-002	2.34926E-004	..........a	-327.66
	38	10.075	-6.15373E-002	-6.19429E-002	2.37126E-004	..........a	-327.66
EOC	QUANT	-0.0615373	Open Circuit (V)
PSTATMODEL	IQUANT	7	Pstat Model
PSTATSECTION	LABEL	REF600P-43058	Pstat Section
PSTATSERIALNO	LABEL	43058	Pstat Serial Number
CTRLMODE	IQUANT	1	Control Mode
ELECTROMETER	IQUANT	0	RE=0 or CS=1
IESTAB	IQUANT	2	I/E Stability
CASPEED	IQUANT	4	Control Amp Speed
CONVENTION	IQUANT	1	Current Convention
ICHRANGE	IQUANT	2	Ich Range
ICHRANGEMODE	TOGGLE	F	Ich Auto Range
ICHOFFSETENABLE	TOGGLE	F	Ich Offset Enable
ICHOFFSET	QUANT	0	Ich Offset (V)
ICHFILTER	IQUANT	2	Ich Filter
VCHRANGE	IQUANT	2	Vch Range
VCHRANGEMODE	TOGGLE	F	Vch Auto Range
VCHOFFSETENABLE	TOGGLE	F	Vch Offset Enable
VCHOFFSET	QUANT	0	Vch Offset (V)
VCHFILTER	IQUANT	2	Vch Filter
ACHRANGE	IQUANT	2	Ach Range
ACHOFFSETENABLE	TOGGLE	F	Ach Offset Enable
ACHOFFSET	QUANT	0	Ach Offset (V)
ACHFILTER	IQUANT	1	Ach Filter
IERANGELOWERLIMIT	IQUANT	1	I/E Range Lower Limit
IERANGEMODE	TOGGLE	T	I/E AutoRange
IERANGE	IQUANT	4	I/E Range
POSFEEDENABLE	TOGGLE	F	Positive Feedback IR Comp
POSFEEDRESISTANCE	QUANT	0	Positive Feedback Resistance (ohm)
ACHSELECT	IQUANT	4	Ach Select
SENSECABLEID	IQUANT	7	Sense Cable ID
PWRCABLEID	IQUANT	7	Power Cable ID
DCCALDATE	LABEL	3/22/2024	DC Calibration Date
ACCALDATE	LABEL	3/22/2024	AC Calibration Date
THERMOSELECT	IQUANT	1	Thermo Select
FRAMEWORKVERSION	LABEL	7.8.4	Framework Version
INSTRUMENTVERSION	LABEL	4.42	Instrument Version
CURVE1	TABLE
	Pt	T	Vf	Im	Vu	Sig	Ach	IERange	Over	Temp
	#	s	V vs. Ref.	A	V	V	V	#	bits	deg C
	0	0.2	-6.14457E-002	9.30331E-010	0.00000E+000	-6.15500E-002	9.79892E-004	5	..........a	-327.66
	2	0.6	-8.14736E-002	-4.15735E-009	0.00000E+000	-8.15500E-002	9.80192E-004	5	..........a	-327.66
	4	1	-1.01490E-001	-7.70171E-009	0.00000E+000	-1.01550E-001	9.93292E-004	5	..........a	-327.66
	6	1.4	-1.21496E-001	-1.07797E-008	0.00000E+000	-1.21550E-001	9.70192E-004	5	..........a	-327.66
	8	1.8	-1.41472E-001	-1.36069E-008	0.00000E+000	-1.41550E-001	9.77292E-004	5	..........a	-327.66
	10	2.2	-1.61511E-001	-1.63422E-008	0.00000E+000	-1.61550E-001	9.71092E-004	5	..........a	-327.66
	12	2.6	-1.81434E-001	-1.89460E-008	0.00000E+000	-1.81550E-001	9.70992E-004	5	..........a	-327.66
	14	3	-2.01515E-001	-2.15340E-008	0.00000E+000	-2.01550E-001	9.82792E-004	5	..........a	-327.66
	16	3.4	-2.21425E-001	-2.40112E-008	0.00000E+000	-2.21550E-001	9.74492E-004	5	..........a	-327.66
	18	3.8	-2.41338E-001	-2.65030E-008	0.00000E+000	-2.41550E-001	9.94292E-004	5	..........a	-327.66
	20	4.2	-2.61356E-001	-2.89912E-008	0.00000E+000	-2.61550E-001	9.83692E-004	5	..........a	-327.66
	22	4.6	-2.81475E-001	-3.15768E-008	0.00000E+000	-2.81550E-001	9.85292E-004	5	..........a	-327.66
	24	5	-3.01413E-001	-3.42489E-008	0.00000E+000	-3.01550E-001	9.79292E-004	5	..........a	-327.66
	26	5.4	-3.21429E-001	-3.69834E-008	0.00000E+000	-3.21550E-001	9.78092E-004	5	..........a	-327.66
	28	5.8	-3.41357E-001	-3.98630E-008	0.00000E+000	-3.41550E-001	1.00799E-003	5	..........a	-327.66
	30	6.2	-3.61452E-001	-4.28814E-008	0.00000E+000	-3.61550E-001	9.85492E-004	5	..........a	-327.66
	32	6.6	-3.81396E-001	-4.59378E-008	0.00000E+000	-3.81550E-001	9.68992E-004	5	..........a	-327.66
	34	7	-4.01430E-001	-4.90457E-008	0.00000E+000	-4.01550E-001	9.85092E-004	5	..........a	-327.66
	36	7.4	-4.21350E-001	-5.21657E-008	0.00000E+000	-4.21550E-001	9.73792E-004	5	..........a	-327.66
	38	7.8	-4.41417E-001	-5.52552E-008	0.00000E+000	-4.41550E-001	9.82792E-004	5	..........a	-327.66
	40	8.2	-4.61322E-001	-5.83514E-008	0.00000E+000	-4.61550E-001	9.81692E-004	5	..........a	-327.66
	42	8.6	-4.81411E-001	-6.14664E-008	0.00000E+000	-4.81550E-001	9.82592E-004	5	..........a	-327.66
	44	9	-5.01377E-001	-6.45470E-008	0.00000E+000	-5.01550E-001	9.68092E-004	5	..........a	-327.66
	46	9.4	-5.21405E-001	-6.77147E-008	0.00000E+000	-5.21550E-001	9.83292E-004	5	..........a	-327.66
	48	9.8	-5.41315E-001	-7.09350E-008	0.00000E+000	-5.41550E-001	9.82492E-004	5	..........a	-327.66
	50	10.2	-5.61453E-001	-7.43396E-008	0.00000E+000	-5.61550E-001	9.98992E-004	5	..........a	-327.66
	52	10.6	-5.81369E-001	-7.79079E-008	0.00000E+000	-5.81550E-001	9.75492E-004	5	..........a	-327.66
	54	11	-6.01408E-001	-8.18289E-008	0.00000E+000	-6.01550E-001	9.97692E-004	5	..........a	-327.66
	56	11.4	-5.81376E-001	-6.34938E-008	0.00000E+000	-5.81550E-001	9.79592E-004	5	..........a	-327.66
	58	11.8	-5.61458E-001	-5.32626E-008	0.00000E+000	-5.61550E-001	1.01869E-003	5	..........a	-327.66
	60	12.2	-5.41372E-001	-4.56830E-008	0.00000E+000	-5.41550E-001	9.95092E-004	5	..........a	-327.66
	62	12.6	-5.21367E-001	-3.95170E-008	0.00000E+000	-5.21550E-001	9.97592E-004	5	..........a	-327.66
	64	13	-5.01403E-001	-3.42301E-008	0.00000E+000	-5.01550E-001	9.87392E-004	5	..........a	-327.66
	66	13.4	-4.81451E-001	-2.96362E-008	0.00000E+000	-4.81550E-001	9.89292E-004	5	..........a	-327.66
	68	13.8	-4.61342E-001	-2.54439E-008	0.00000E+000	-4.61550E-001	9.80592E-004	5	..........a	-327.66
	70	14.2	-4.41437E-001	-2.16399E-008	0.00000E+000	-4.41550E-001	9.99092E-004	5	..........a	-327.66
	72	14.6	-4.21337E-001	-1.81112E-008	0.00000E+000	-4.21550E-001	9.92892E-004	5	..........a	-327.66
	74	15	-4.01426E-001	-1.48173E-008	0.00000E+000	-4.01550E-001	9.86992E-004	5	..........a	-327.66
	76	15.4	-3.81391E-001	-1.17353E-008	0.00000E+000	-3.81550E-001	9.68092E-004	5	..........a	-327.66
	78	15.8	-3.61460E-001	-8.83768E-009	0.00000E+000	-3.61550E-001	9.99492E-004	5	..........a	-327.66
	80	16.2	-3.41407E-001	-6.14285E-009	0.00000E+000	-3.41550E-001	9.95292E-004	5	..........a	-327.66
	82	16.6	-3.21441E-001	-3.51809E-009	0.00000E+000	-3.21550E-001	9.98092E-004	5	..........a	-327.66
	84	17	-3.01436E-001	-1.14267E-009	0.00000E+000	-3.01550E-001	9.91592E-004	5	..........a	-327.66
	86	17.4	-2.81570E-001	1.22227E-009	0.00000E+000	-2.81550E-001	9.81892E-004	5	..........a	-327.66
	88	17.8	-2.61383E-001	3.43462E-009	0.00000E+000	-2.61550E-001	9.77692E-004	5	..........a	-327.66
	90	18.2	-2.41425E-001	5.57581E-009	0.00000E+000	-2.41550E-001	9.77092E-004	5	..........a	-327.66
	92	18.6	-2.21457E-001	7.66705E-009	0.00000E+000	-2.21550E-001	9.77492E-004	5	..........a	-327.66
	94	19	-2.01547E-001	9.68409E-009	0.00000E+000	-2.01550E-001	9.87092E-004	5	..........a	-327.66
	96	19.4	-1.81465E-001	1.16406E-008	0.00000E+000	-1.81550E-001	9.82592E-004	5	..........a	-327.66
	98	19.8	-1.61598E-001	1.35395E-008	0.00000E+000	-1.61550E-001	9.91692E-004	5	..........a	-327.66
	100	20.2	-1.41504E-001	1.54046E-008	0.00000E+000	-1.41550E-001	9.88492E-004	5	..........a	-327.66
	102	20.6	-1.21540E-001	1.72646E-008	0.00000E+000	-1.21550E-001	1.00949E-003	5	..........a	-327.66
	104	21	-1.01512E-001	1.90781E-008	0.00000E+000	-1.01550E-001	9.86892E-004	5	..........a	-327.66
	106	21.4	-8.15342E-002	2.09069E-008	0.00000E+000	-8.15500E-002	9.94192E-004	5	..........a	-327.66
	108	21.8	-6.17235E-002	2.27431E-008	0.00000E+000	-6.15500E-002	9.77492E-004	5	..........a	-327.66
	110	22.2	-4.15243E-002	2.46144E-008	0.00000E+000	-4.15500E-002	9.87792E-004	5	..........a	-327.66
	112	22.6	-2.14940E-002	2.65369E-008	0.00000E+000	-2.15500E-002	9.76192E-004	5	..........a	-327.66
	114	23	-1.60986E-003	2.84961E-008	0.00000E+000	-1.55000E-003	1.00879E-003	5	..........a	-327.66
	116	23.4	1.85920E-002	3.04932E-008	0.00000E+000	1.84500E-002	9.88892E-004	5	..........a	-327.66
	118	23.8	3.85226E-002	3.25687E-008	0.00000E+000	3.84500E-002	9.87492E-004	5	..........a	-327.66
	120	24.2	5.85034E-002	3.45390E-008	0.00000E+000	5.84500E-002	9.74792E-004	5	..........a	-327.66
	122	24.6	7.84663E-002	3.66182E-008	0.00000E+000	7.84500E-002	1.00449E-003	5	..........a	-327.66
	124	25	9.85638E-002	3.87190E-008	0.00000E+000	9.84500E-002	9.62092E-004	5	..........a	-327.66
	126	25.4	1.18446E-001	4.08386E-008	0.00000E+000	1.18450E-001	9.96292E-004	5	..........a	-327.66
	128	25.8	1.38525E-001	4.31474E-008	0.00000E+000	1.38450E-001	9.89592E-004	5	..........a	-327.66
	130	26.2	1.58439E-001	4.63501E-008	0.00000E+000	1.58450E-001	1.01549E-003	5	..........a	-327.66
	132	26.6	1.78528E-001	4.94135E-008	0.00000E+000	1.78450E-001	9.81792E-004	5	..........a	-327.66
	134	27	1.98419E-001	5.15881E-008	0.00000E+000	1.98450E-001	9.89092E-004	5	..........a	-327.66
	136	27.4	2.18504E-001	5.35632E-008	0.00000E+000	2.18450E-001	9.78892E-004	5	..........a	-327.66
	138	27.8	2.38438E-001	5.58240E-008	0.00000E+000	2.38450E-001	9.93692E-004	5	..........a	-327.66
	140	28.2	2.58467E-001	5.84382E-008	0.00000E+000	2.58450E-001	9.79792E-004	5	..........a	-327.66
	142	28.6	2.78391E-001	6.14297E-008	0.00000E+000	2.78450E-001	1.00959E-003	5	..........a	-327.66
	144	29	2.98501E-001	6.49885E-008	0.00000E+000	2.98450E-001	9.88592E-004	5	..........a	-327.66
	146	29.4	3.18417E-001	6.93447E-008	0.00000E+000	3.18450E-001	9.96292E-004	5	..........a	-327.66
	148	29.8	3.38438E-001	7.46349E-008	0.00000E+000	3.38450E-001	9.83592E-004	5	..........a	-327.66
	150	30.2	3.58369E-001	8.06592E-008	0.00000E+000	3.58450E-001	1.00369E-003	5	..........a	-327.66
	152	30.6	3.78467E-001	8.72099E-008	0.00000E+000	3.78450E-001	1.01159E-003	5	..........a	-327.66
	154	31	3.98401E-001	9.41359E-008	0.00000E+000	3.98450E-001	9.84292E-004	5	..........a	-327.66
	156	31.4	4.18424E-001	1.01300E-007	0.00000E+000	4.18450E-001	9.82092E-004	5	..........a	-327.66
	158	31.8	4.38358E-001	1.08595E-007	0.00000E+000	4.38450E-001	1.01889E-003	5	..........a	-327.66
	160	32.2	4.58396E-001	1.15989E-007	0.00000E+000	4.58450E-001	9.79992E-004	5	..........a	-327.66
	162	32.6	4.78335E-001	1.23236E-007	0.00000E+000	4.78450E-001	9.98092E-004	5	..........a	-327.66
	164	33	4.98390E-001	1.30407E-007	0.00000E+000	4.98450E-001	9.94392E-004	5	..........a	-327.66
	166	33.4	5.18344E-001	1.37213E-007	0.00000E+000	5.18450E-001	9.98392E-004	5	..........a	-327.66
	168	33.8	5.38361E-001	1.43722E-007	0.00000E+000	5.38450E-001	9.89992E-004	5	..........a	-327.66
	170	34.2	5.58348E-001	1.49908E-007	0.00000E+000	5.58450E-001	9.92492E-004	5	..........a	-327.66
	172	34.6	5.78224E-001	1.55734E-007	0.00000E+000	5.78450E-001	9.75992E-004	5	..........a	-327.66
	174	35	5.98342E-001	1.61355E-007	0.00000E+000	5.98450E-001	1.01389E-003	5	..........a	-327.66
	176	35.4	6.18317E-001	1.66946E-007	0.00000E+000	6.18450E-001	1.01609E-003	5	..........a	-327.66
	178	35.8	6.38274E-001	1.72534E-007	0.00000E+000	6.38450E-001	9.86892E-004	5	..........a	-327.66
	180	36.2	6.58311E-001	1.77982E-007	0.00000E+000	6.58450E-001	9.95492E-004	5	..........a	-327.66
	182	36.6	6.78276E-001	1.83505E-007	0.00000E+000	6.78450E-001	9.86792E-004	5	..........a	-327.66
	184	37	6.98295E-001	1.89281E-007	0.00000E+000	6.98450E-001	9.87792E-004	5	..........a	-327.66
	186	37.4	7.18282E-001	1.95368E-007	0.00000E+000	7.18450E-001	9.76892E-004	5	..........a	-327.66
	188	37.8	7.38288E-001	2.02104E-007	0.00000E+000	7.38450E-001	9.86692E-004	5	..........a	-327.66
	190	38.2	7.58285E-001	2.09711E-007	0.00000E+000	7.58450E-001	9.89792E-004	5	..........a	-327.66
	192	38.6	7.78279E-001	2.18223E-007	0.00000E+000	7.78450E-001	9.70992E-004	5	..........a	-327.66
	194	39	7.98269E-001	2.27929E-007	0.00000E+000	7.98450E-001	9.72292E-004	5	..........a	-327.66
CURVE2	TABLE
	Pt	T	Vf	Im	Vu	Sig	Ach	IERange	Over	Temp
	#	s	V vs. Ref.	A	V	V	V	#	bits	deg C
	195	39.2	7.89954E-001	1.90483E-007	0.00000E+000	7.90000E-001	9.91492E-004	5	..........a	-327.66
	198	39.8	7.59874E-001	1.28480E-007	0.00000E+000	7.60000E-001	9.85892E-004	5	..........a	-327.66
	201	40.4	7.29888E-001	9.83069E-008	0.00000E+000	7.30000E-001	9.87392E-004	5	..........a	-327.66
	204	41	6.99898E-001	7.94653E-008	0.00000E+000	7.00000E-001	9.90892E-004	5	..........a	-327.66
	207	41.6	6.69972E-001	6.59848E-008	0.00000E+000	6.70000E-001	1.00989E-003	5	..........a	-327.66
	210	42.2	6.39888E-001	5.52238E-008	0.00000E+000	6.40000E-001	9.96692E-004	5	..........a	-327.66
	213	42.8	6.09940E-001	4.62398E-008	0.00000E+000	6.10000E-001	1.00019E-003	5	..........a	-327.66
	216	43.4	5.79989E-001	3.83171E-008	0.00000E+000	5.80000E-001	9.74792E-004	5	..........a	-327.66
	219	44	5.50015E-001	3.13999E-008	0.00000E+000	5.50000E-001	9.80792E-004	5	..........a	-327.66
	222	44.6	5.19957E-001	2.50575E-008	0.00000E+000	5.20000E-001	1.00219E-003	5	..........a	-327.66
	225	45.2	4.89938E-001	1.91663E-008	0.00000E+000	4.90000E-001	9.95592E-004	5	..........a	-327.66
	228	45.8	4.59978E-001	1.37062E-008	0.00000E+000	4.60000E-001	9.90892E-004	5	..........a	-327.66
	231	46.4	4.29952E-001	8.29998E-009	0.00000E+000	4.30000E-001	9.89592E-004	5	..........a	-327.66
	234	47	3.99955E-001	2.82484E-009	0.00000E+000	4.00000E-001	1.00629E-003	5	..........a	-327.66
	237	47.6	3.70046E-001	-2.88013E-009	0.00000E+000	3.70000E-001	9.92392E-004	5	..........a	-327.66
	240	48.2	3.40077E-001	-8.81377E-009	0.00000E+000	3.40000E-001	9.83192E-004	5	..........a	-327.66
	243	48.8	3.10057E-001	-1.53119E-008	0.00000E+000	3.10000E-001	9.79392E-004	5	..........a	-327.66
	246	49.4	2.79976E-001	-2.26498E-008	0.00000E+000	2.80000E-001	9.97692E-004	5	..........a	-327.66
	249	50	2.50005E-001	-3.08750E-008	0.00000E+000	2.50000E-001	9.96792E-004	5	..........a	-327.66
	252	50.6	2.19799E-001	-3.96176E-008	0.00000E+000	2.20000E-001	9.84992E-004	5	..........a	-327.66
	255	51.2	1.90118E-001	-4.70050E-008	0.00000E+000	1.90000E-001	9.72892E-004	5	..........a	-327.66
	258	51.8	1.60079E-001	-4.99142E-008	0.00000E+000	1.60000E-001	9.75492E-004	5	..........a	-327.66
	261	52.4	1.30053E-001	-4.74638E-008	0.00000E+000	1.30000E-001	9.76492E-004	5	..........a	-327.66
	264	53	1.00108E-001	-4.23393E-008	0.00000E+000	1.00000E-001	9.87292E-004	5	..........a	-327.66
[...]
CURVE5	TABLE
	Pt	T	Vf	Im	Vu	Sig	Ach	IERange	Over	Temp
	#	s	V vs. Ref.	A	V	V	V	#	bits	deg C
	1035	207.2	7.89953E-001	1.62491E-007	0.00000E+000	7.90000E-001	9.71592E-004	5	..........a	-327.66
	1036	207.4	7.79860E-001	1.39673E-007	0.00000E+000	7.80000E-001	9.65592E-004	5	..........a	-327.66
	1037	207.6	7.69883E-001	1.23131E-007	0.00000E+000	7.70000E-001	9.86992E-004	5	..........a	-327.66
	1038	207.8	7.59833E-001	1.10444E-007	0.00000E+000	7.60000E-001	9.63192E-004	5	..........a	-327.66
	1039	208	7.49959E-001	1.00370E-007	0.00000E+000	7.50000E-001	9.49292E-004	5	..........a	-327.66
	1040	208.2	7.39891E-001	9.20228E-008	0.00000E+000	7.40000E-001	9.47292E-004	5	..........a	-327.66
	1041	208.4	7.29863E-001	8.49771E-008	0.00000E+000	7.30000E-001	9.73792E-004	5	..........a	-327.66
	1042	208.6	7.19908E-001	7.88958E-008	0.00000E+000	7.20000E-001	9.58992E-004	5	..........a	-327.66
	1043	208.8	7.09990E-001	7.36103E-008	0.00000E+000	7.10000E-001	9.63092E-004	5	..........a	-327.66
	1044	209	6.99903E-001	6.87816E-008	0.00000E+000	7.00000E-001	9.61192E-004	5	..........a	-327.66
	1045	209.2	6.89877E-001	6.44688E-008	0.00000E+000	6.90000E-001	9.65892E-004	5	..........a	-327.66
	1046	209.4	6.79955E-001	6.04868E-008	0.00000E+000	6.80000E-001	9.53292E-004	5	..........a	-327.66
	1047	209.6	6.69974E-001	5.68101E-008	0.00000E+000	6.70000E-001	9.80992E-004	5	..........a	-327.66
	1048	209.8	6.59931E-001	5.33468E-008	0.00000E+000	6.60000E-001	9.53392E-004	5	..........a	-327.66
	1049	210	6.49929E-001	5.00913E-008	0.00000E+000	6.50000E-001	9.76892E-004	5	..........a	-327.66
	1050	210.2	6.39877E-001	4.70186E-008	0.00000E+000	6.40000E-001	9.70392E-004	5	..........a	-327.66
	1051	210.4	6.29986E-001	4.40826E-008	0.00000E+000	6.30000E-001	9.70592E-004	5	..........a	-327.66
	1052	210.6	6.19914E-001	4.12550E-008	0.00000E+000	6.20000E-001	9.51292E-004	5	..........a	-327.66
	1053	210.8	6.09934E-001	3.85727E-008	0.00000E+000	6.10000E-001	9.72392E-004	5	..........a	-327.66
	1054	211	5.99963E-001	3.59962E-008	0.00000E+000	6.00000E-001	9.78092E-004	5	..........a	-327.66
	1055	211.2	5.89980E-001	3.35957E-008	0.00000E+000	5.90000E-001	9.73592E-004	5	..........a	-327.66
	1056	211.4	5.79984E-001	3.13347E-008	0.00000E+000	5.80000E-001	9.67092E-004	5	..........a	-327.66
	1057	211.6	5.69954E-001	2.91681E-008	0.00000E+000	5.70000E-001	9.67692E-004	5	..........a	-327.66
	1058	211.8	5.59945E-001	2.70754E-008	0.00000E+000	5.60000E-001	9.76592E-004	5	..........a	-327.66
	1059	212	5.50015E-001	2.50045E-008	0.00000E+000	5.50000E-001	9.51992E-004	5	..........a	-327.66
	1060	212.2	5.39977E-001	2.29515E-008	0.00000E+000	5.40000E-001	9.68392E-004	5	..........a	-327.66
	1061	212.4	5.29937E-001	2.09123E-008	0.00000E+000	5.30000E-001	9.71392E-004	5	..........a	-327.66
	1062	212.6	5.19955E-001	1.89534E-008	0.00000E+000	5.20000E-001	9.91792E-004	5	..........a	-327.66
	1063	212.8	5.09978E-001	1.70908E-008	0.00000E+000	5.10000E-001	9.77692E-004	5	..........a	-327.66
	1064	213	4.99987E-001	1.53515E-008	0.00000E+000	5.00000E-001	9.57592E-004	5	..........a	-327.66
	1065	213.2	4.89937E-001	1.36409E-008	0.00000E+000	4.90000E-001	9.60692E-004	5	..........a	-327.66
	1066	213.4	4.79915E-001	1.20070E-008	0.00000E+000	4.80000E-001	9.75092E-004	5	..........a	-327.66
	1067	213.6	4.70017E-001	1.03188E-008	0.00000E+000	4.70000E-001	9.68492E-004	5	..........a	-327.66
	1068	213.8	4.59988E-001	8.66890E-009	0.00000E+000	4.60000E-001	9.76892E-004	5	..........a	-327.66
	1069	214	4.49774E-001	6.94086E-009	0.00000E+000	4.50000E-001	9.82792E-004	5	..........a	-327.66
	1070	214.2	4.39959E-001	5.23978E-009	0.00000E+000	4.40000E-001	9.89392E-004	5	..........a	-327.66
	1071	214.4	4.29969E-001	3.50706E-009	0.00000E+000	4.30000E-001	9.67792E-004	5	..........a	-327.66
	1072	214.6	4.20012E-001	1.75517E-009	0.00000E+000	4.20000E-001	9.65992E-004	5	..........a	-327.66
	1073	214.8	4.09970E-001	-1.09328E-010	0.00000E+000	4.10000E-001	9.76592E-004	5	..........a	-327.66
	1074	215	3.99988E-001	-1.87740E-009	0.00000E+000	4.00000E-001	9.58392E-004	5	..........a	-327.66
	1075	215.2	3.90076E-001	-3.72504E-009	0.00000E+000	3.90000E-001	9.71492E-004	5	..........a	-327.66
	1076	215.4	3.80033E-001	-5.59283E-009	0.00000E+000	3.80000E-001	9.40292E-004	5	..........a	-327.66
	1077	215.6	3.70037E-001	-7.50194E-009	0.00000E+000	3.70000E-001	9.71692E-004	5	..........a	-327.66
	1078	215.8	3.60025E-001	-9.43739E-009	0.00000E+000	3.60000E-001	9.75992E-004	5	..........a	-327.66
	1079	216	3.50051E-001	-1.14872E-008	0.00000E+000	3.50000E-001	9.64192E-004	5	..........a	-327.66
	1080	216.2	3.40072E-001	-1.35736E-008	0.00000E+000	3.40000E-001	9.40892E-004	5	..........a	-327.66
	1081	216.4	3.30040E-001	-1.57186E-008	0.00000E+000	3.30000E-001	9.61392E-004	5	..........a	-327.66
	1082	216.6	3.20041E-001	-1.80202E-008	0.00000E+000	3.20000E-001	9.66292E-004	5	..........a	-327.66
	1083	216.8	3.10070E-001	-2.03852E-008	0.00000E+000	3.10000E-001	9.71192E-004	5	..........a	-327.66
	1084	217	3.00062E-001	-2.29223E-008	0.00000E+000	3.00000E-001	9.50192E-004	5	..........a	-327.66
	1085	217.2	2.90066E-001	-2.55388E-008	0.00000E+000	2.90000E-001	9.59092E-004	5	..........a	-327.66
	1086	217.4	2.79992E-001	-2.83342E-008	0.00000E+000	2.80000E-001	9.79192E-004	5	..........a	-327.66
	1087	217.6	2.70106E-001	-3.13670E-008	0.00000E+000	2.70000E-001	9.48392E-004	5	..........a	-327.66
	1088	217.8	2.60067E-001	-3.44850E-008	0.00000E+000	2.60000E-001	9.64692E-004	5	..........a	-327.66
	1089	218	2.49990E-001	-3.78127E-008	0.00000E+000	2.50000E-001	9.71092E-004	5	..........a	-327.66
	1090	218.2	2.40059E-001	-4.12674E-008	0.00000E+000	2.40000E-001	9.73792E-004	5	..........a	-327.66
	1091	218.4	2.30072E-001	-4.47304E-008	0.00000E+000	2.30000E-001	9.69592E-004	5	..........a	-327.66
	1092	218.6	2.20011E-001	-4.81995E-008	0.00000E+000	2.20000E-001	9.46092E-004	5	..........a	-327.66
	1093	218.8	2.10049E-001	-5.15441E-008	0.00000E+000	2.10000E-001	9.68592E-004	5	..........a	-327.66
	1094	219	2.00074E-001	-5.45445E-008	0.00000E+000	2.00000E-001	9.65392E-004	5	..........a	-327.66
	1095	219.2	1.90118E-001	-5.71300E-008	0.00000E+000	1.90000E-001	9.61492E-004	5	..........a	-327.66
	1096	219.4	1.80124E-001	-5.90288E-008	0.00000E+000	1.80000E-001	9.59292E-004	5	..........a	-327.66
	1097	219.6	1.70110E-001	-6.02488E-008	0.00000E+000	1.70000E-001	9.47992E-004	5	..........a	-327.66
	1098	219.8	1.60090E-001	-6.06003E-008	0.00000E+000	1.60000E-001	9.62792E-004	5	..........a	-327.66
	1099	220	1.50086E-001	-6.01285E-008	0.00000E+000	1.50000E-001	9.69292E-004	5	..........a	-327.66
	1100	220.2	1.40136E-001	-5.88658E-008	0.00000E+000	1.40000E-001	9.49892E-004	5	..........a	-327.66
	1101	220.4	1.30078E-001	-5.69873E-008	0.00000E+000	1.30000E-001	9.62692E-004	5	..........a	-327.66
	1102	220.6	1.20075E-001	-5.45957E-008	0.00000E+000	1.20000E-001	9.62892E-004	5	..........a	-327.66
	1103	220.8	1.10113E-001	-5.19248E-008	0.00000E+000	1.10000E-001	9.59092E-004	5	..........a	-327.66
	1104	221	1.00126E-001	-4.91996E-008	0.00000E+000	1.00000E-001	9.55292E-004	5	..........a	-327.66
	1105	221.2	9.01096E-002	-4.66590E-008	0.00000E+000	9.00000E-002	9.60092E-004	5	..........a	-327.66
	1106	221.4	8.00861E-002	-4.44055E-008	0.00000E+000	8.00000E-002	9.58192E-004	5	..........a	-327.66
	1107	221.6	7.00275E-002	-4.26220E-008	0.00000E+000	7.00000E-002	9.60692E-004	5	..........a	-327.66
	1108	221.8	6.01104E-002	-4.12319E-008	0.00000E+000	6.00000E-002	9.56092E-004	5	..........a	-327.66
	1109	222	5.00631E-002	-4.03401E-008	0.00000E+000	5.00000E-002	9.71592E-004	5	..........a	-327.66
	1110	222.2	4.00086E-002	-3.98993E-008	0.00000E+000	4.00000E-002	9.58892E-004	5	..........a	-327.66
	1111	222.4	3.00884E-002	-3.98036E-008	0.00000E+000	3.00000E-002	9.88492E-004	5	..........a	-327.66
	1112	222.6	2.01659E-002	-4.01213E-008	0.00000E+000	2.00000E-002	9.66692E-004	5	..........a	-327.66
	1113	222.8	1.01145E-002	-4.14180E-008	0.00000E+000	1.00000E-002	9.49292E-004	5	..........a	-327.66
	1114	223	2.59917E-005	-4.23897E-008	0.00000E+000	7.45058E-009	9.60292E-004	5	..........a	-327.66
	1115	223.2	-9.86701E-003	-4.03173E-008	0.00000E+000	-1.00000E-002	9.63292E-004	5	..........a	-327.66
	1116	223.4	-1.99176E-002	-4.05031E-008	0.00000E+000	-2.00000E-002	9.66092E-004	5	..........a	-327.66
	1117	223.6	-2.99308E-002	-4.11503E-008	0.00000E+000	-3.00000E-002	9.66992E-004	5	..........a	-327.66
	1118	223.8	-3.99208E-002	-4.16306E-008	0.00000E+000	-4.00000E-002	9.51192E-004	5	..........a	-327.66
	1119	224	-4.99242E-002	-4.21867E-008	0.00000E+000	-5.00000E-002	9.57992E-004	5	..........a	-327.66
	1120	224.2	-5.98952E-002	-4.28514E-008	0.00000E+000	-6.00000E-002	9.53992E-004	5	..........a	-327.66