File: data/raw/batch_data/20240424_ZV_GM0016_HL03_E12_CV50K.DTA
EXPLAIN
TAG	CV
TITLE	LABEL	Cyclic Voltammetry	Test &Identifier
DATE	LABEL	4/24/2024	Date
TIME	LABEL	19:22:53	Time
NOTES	NOTES	1	&Notes...

PSTAT	PSTAT	REF600P-43058	Potentiostat
VINIT	POTEN	0.00000E+000	T	Initial &E (V)
VLIMIT1	POTEN	-6.00000E-001	F	Scan Limit &1 (V)
VLIMIT2	POTEN	8.00000E-001	F	Scan Limit &2 (V)
VFINAL	POTEN	0.00000E+000	T	Final &E (V)
SCANRATE	QUANT	4.99999E+004	&Scan Rate (mV/s)
STEPSIZE	QUANT	1.00000E+001	St&ep Size (mV)
CYCLES	IQUANT	10	C&ycles (#)
IMODE	SELECTOR	0	I/E Range &Mode
IRANGE	QUANT	1.00000E-005	&Max Current (mA)
AREA	QUANT	1.00000E+000	Electrode &Area (cm^2)
ELECTRODETYPE	SELECTOR	0	Electrode Type
STRIPPING	TOGGLE	F	Used for Stripping
POLARITY	TOGGLE	F	Signal Polarity
CONDIT	TWOPARAM	F	1.50000E+001	0.00000E+000	Conditionin&g	Time(s)	E(V)
DELAY	TWOPARAM	T	1.00000E+001	0.00000E+000	Init. De&lay	Time(s)	Stab.(mV/s)
EQDELAY	QUANT	1.00000E+001	Equil. &Time (s)
IRCOMP	SELECTOR	0	IRCom&p
PFCOR	QUANT	5.00000E+001	PF Corr. (ohm)
SAMPLINGMODE	SELECTOR	1	Sampling &Mode
OCVCURVE	TABLE	39
	Pt	T	Vf	Vm	Ach	Over	Temp
	#	s	V vs. Ref.	V	V	bits	deg C
	0	0.258333	2.61504E-002	2.61504E-002	2.39726E-004	..........a	-327.66
	1	0.516667	2.61437E-002	2.57994E-002	2.44259E-004	..........a	-327.66
	2	0.775	2.61023E-002	2.54505E-002	2.48259E-004	..........a	-327.66
	3	1.03333	2.59836E-002	2.51047E-002	2.46259E-004	..........a	-327.66
	4	1.29167	2.57684E-002	2.47672E-002	2.44459E-004	..........a	-327.66
	5	1.55	2.54766E-002	2.44141E-002	2.43126E-004	..........a	-327.66
	6	1.80833	2.51441E-002	2.40914E-002	2.37192E-004	..........a	-327.66
	7	2.06667	2.47987E-002	2.37468E-002	2.35459E-004	..........a	-327.66
	8	2.325	2.44538E-002	2.34093E-002	2.37659E-004	..........a	-327.66
	9	2.58333	2.41128E-002	2.30797E-002	2.50726E-004	..........a	-327.66
	10	2.84167	2.37749E-002	2.27537E-002	2.33792E-004	..........a	-327.66
	11	3.1	2.34399E-002	2.24215E-002	2.54926E-004	..........a	-327.66
	12	3.35833	2.31076E-002	2.20941E-002	2.27592E-004	..........a	-327.66
	13	3.61667	2.27774E-002	2.17655E-002	2.37726E-004	..........a	-327.66
	14	3.875	2.24482E-002	2.14397E-002	2.53459E-004	..........a	-327.66
	15	4.13333	2.21200E-002	2.11242E-002	2.40459E-004	..........a	-327.66
	16	4.39167	2.17937E-002	2.08112E-002	2.27392E-004	..........a	-327.66
	17	4.65	2.14706E-002	2.04974E-002	2.38592E-004	..........a	-327.66
	18	4.90833	2.11515E-002	2.01825E-002	2.27326E-004	..........a	-327.66
	19	5.16667	2.08355E-002	1.98712E-002	2.47792E-004	..........a	-327.66
	20	5.425	2.05213E-002	1.95591E-002	2.60326E-004	..........a	-327.66
	21	5.68333	2.02082E-002	1.92534E-002	2.38326E-004	..........a	-327.66
	22	5.94167	1.98963E-002	1.89463E-002	2.34792E-004	..........a	-327.66
	23	6.2	1.95861E-002	1.86417E-002	2.36326E-004	..........a	-327.66
	24	6.45833	1.92778E-002	1.83368E-002	2.51192E-004	..........a	-327.66
	25	6.71667	1.89711E-002	1.80360E-002	2.50792E-004	..........a	-327.66
	26	6.975	1.86660E-002	1.77351E-002	2.58659E-004	..........a	-327.66
	27	7.23333	1.83623E-002	1.74322E-002	2.45192E-004	..........a	-327.66
	28	7.49167	1.80598E-002	1.71367E-002	2.33392E-004	..........a	-327.66
	29	7.75	1.77586E-002	1.68426E-002	2.57859E-004	..........a	-327.66
	30	8.00833	1.74589E-002	1.65448E-002	2.51326E-004	..........a	-327.66
	31	8.26667	1.71611E-002	1.62519E-002	2.37659E-004	..........a	-327.66
	32	8.525	1.68649E-002	1.59676E-002	2.39459E-004	..........a	-327.66
	33	8.78333	1.65706E-002	1.56808E-002	2.46726E-004	..........a	-327.66
	34	9.04167	1.62791E-002	1.53956E-002	2.37926E-004	..........a	-327.66
	35	9.3	1.59902E-002	1.51073E-002	2.48326E-004	..........a	-327.66
	36	9.5583	1.57031E-002	1.48244E-002	2.41392E-004	..........a	-327.66
	37	9.8167	1.54170E-002	1.45447E-002	2.43726E-004	..........a	-327.66
	38	10.075	1.51321E-002	1.42662E-002	2.45059E-004	..........a	-327.66
EOC	QUANT	0.0151321	Open Circuit (V)
PSTATMODEL	IQUANT	7	Pstat Model
PSTATSECTION	LABEL	REF600P-43058	Pstat Section
PSTATSERIALNO	LABEL	43058	Pstat Serial Number
CTRLMODE	IQUANT	1	Control Mode
ELECTROMETER	IQUANT	0	RE=0 or CS=1
IESTAB	IQUANT	2	I/E Stability
CASPEED	IQUANT	4	Control Amp Speed
CONVENTION	IQUANT	1	Current Convention
ICHRANGE	IQUANT	2	Ich Range
ICHRANGEMODE	TOGGLE	F	Ich Auto Range
ICHOFFSETENABLE	TOGGLE	F	Ich Offset Enable
ICHOFFSET	QUANT	0	Ich Offset (V)
ICHFILTER	IQUANT	1	Ich Filter
VCHRANGE	IQUANT	2	Vch Range
VCHRANGEMODE	TOGGLE	F	Vch Auto Range
VCHOFFSETENABLE	TOGGLE	F	Vch Offset Enable
VCHOFFSET	QUANT	0	Vch Offset (V)
VCHFILTER	IQUANT	1	Vch Filter
ACHRANGE	IQUANT	2	Ach Range
ACHOFFSETENABLE	TOGGLE	F	Ach Offset Enable
ACHOFFSET	QUANT	0	Ach Offset (V)
ACHFILTER	IQUANT	1	Ach Filter
IERANGELOWERLIMIT	IQUANT	1	I/E Range Lower Limit
IERANGEMODE	TOGGLE	T	I/E AutoRange
IERANGE	IQUANT	4	I/E Range
POSFEEDENABLE	TOGGLE	F	Positive Feedback IR Comp
POSFEEDRESISTANCE	QUANT	0	Positive Feedback Resistance (ohm)
ACHSELECT	IQUANT	4	Ach Select
SENSECABLEID	IQUANT	7	Sense Cable ID
PWRCABLEID	IQUANT	7	Power Cable ID
DCCALDATE	LABEL	3/22/2024	DC Calibration Date
ACCALDATE	LABEL	3/22/2024	AC Calibration Date
THERMOSELECT	IQUANT	1	Thermo Select
FRAMEWORKVERSION	LABEL	7.8.4	Framework Version
INSTRUMENTVERSION	LABEL	4.42	Instrument Version
CURVE1	TABLE
	Pt	T	Vf	Im	Vu	Sig	Ach	IERange	Over	Temp
	#	s	V vs. Ref.	A	V	V	V	#	bits	deg C
	0	0.0002	1.43971E-002	2.05000E-007	0.00000E+000	1.51500E-002	8.15923E-005	8	..........a	-327.66
	3	0.0008	-1.48529E-002	-2.40510E-006	0.00000E+000	-1.48500E-002	8.15923E-005	8	..........a	-327.66
	6	0.0014	-4.48529E-002	-3.71515E-006	0.00000E+000	-4.48500E-002	8.15923E-005	8	..........a	-327.66
	9	0.002	-7.48529E-002	-4.64519E-006	0.00000E+000	-7.48500E-002	8.15923E-005	8	..........a	-327.66
	12	0.0026	-1.04853E-001	-5.31521E-006	0.00000E+000	-1.04850E-001	8.15923E-005	8	..........a	-327.66
	15	0.0032	-1.34953E-001	-5.83523E-006	0.00000E+000	-1.34850E-001	8.15923E-005	8	..........a	-327.66
	18	0.0038	-1.64953E-001	-6.35525E-006	0.00000E+000	-1.64850E-001	8.15923E-005	8	..........a	-327.66
	21	0.0044	-1.94753E-001	-6.71527E-006	0.00000E+000	-1.94850E-001	8.15923E-005	8	..........a	-327.66
	24	0.005	-2.24853E-001	-7.09528E-006	0.00000E+000	-2.24850E-001	8.15923E-005	8	..........a	-327.66
	27	0.0056	-2.54753E-001	-7.44529E-006	0.00000E+000	-2.54850E-001	8.15923E-005	8	..........a	-327.66
	30	0.0062	-2.84853E-001	-7.84531E-006	0.00000E+000	-2.84850E-001	-2.18408E-004	8	..........a	-327.66
	33	0.0068	-3.14753E-001	-8.15532E-006	0.00000E+000	-3.14850E-001	8.15923E-005	8	..........a	-327.66
	36	0.0074	-3.44653E-001	-8.59534E-006	0.00000E+000	-3.44850E-001	8.15923E-005	8	..........a	-327.66
	39	0.008	-3.74753E-001	-9.00535E-006	0.00000E+000	-3.74850E-001	8.15923E-005	8	..........a	-327.66
	42	0.0086	-4.04653E-001	-9.43537E-006	0.00000E+000	-4.04850E-001	8.15923E-005	8	..........a	-327.66
	45	0.0092	-4.34753E-001	-9.88539E-006	0.00000E+000	-4.34850E-001	8.15923E-005	8	..........a	-327.66
	48	0.0098	-4.64653E-001	-1.04054E-005	0.00000E+000	-4.64850E-001	8.15923E-005	8	..........a	-327.66
	51	0.0104	-4.94753E-001	-1.08654E-005	0.00000E+000	-4.94850E-001	8.15923E-005	8	..........a	-327.66
	54	0.011	-5.24753E-001	-1.12954E-005	0.00000E+000	-5.24850E-001	8.15923E-005	8	..........a	-327.66
	57	0.0116	-5.54853E-001	-1.17755E-005	0.00000E+000	-5.54850E-001	8.15923E-005	8	..........a	-327.66
	60	0.0122	-5.84653E-001	-1.21655E-005	0.00000E+000	-5.84850E-001	8.15923E-005	8	..........a	-327.66
	63	0.0128	-5.74853E-001	-8.14532E-006	0.00000E+000	-5.74850E-001	8.15923E-005	8	..........a	-327.66
	66	0.0134	-5.45153E-001	-4.69519E-006	0.00000E+000	-5.44850E-001	8.15923E-005	8	..........a	-327.66
	69	0.014	-5.14853E-001	-2.34510E-006	0.00000E+000	-5.14850E-001	8.15923E-005	8	..........a	-327.66
	72	0.0146	-4.84653E-001	-5.65030E-007	0.00000E+000	-4.84850E-001	8.15923E-005	8	..........a	-327.66
	75	0.0152	-4.54753E-001	8.35024E-007	0.00000E+000	-4.54850E-001	8.15923E-005	8	..........a	-327.66
	78	0.0158	-4.24753E-001	1.94507E-006	0.00000E+000	-4.24850E-001	8.15923E-005	8	..........a	-327.66
	81	0.0164	-3.94753E-001	2.87510E-006	0.00000E+000	-3.94850E-001	8.15923E-005	8	..........a	-327.66
	84	0.017	-3.64903E-001	3.66513E-006	0.00000E+000	-3.64850E-001	8.15923E-005	8	..........a	-327.66
	87	0.0176	-3.34753E-001	4.34516E-006	0.00000E+000	-3.34850E-001	-4.18408E-004	8	..........a	-327.66
	90	0.0182	-3.04653E-001	4.96518E-006	0.00000E+000	-3.04850E-001	8.15923E-005	8	..........a	-327.66
	93	0.0188	-2.74753E-001	5.43520E-006	0.00000E+000	-2.74850E-001	8.15923E-005	8	..........a	-327.66
	96	0.0194	-2.44753E-001	5.90522E-006	0.00000E+000	-2.44850E-001	8.15923E-005	8	..........a	-327.66
	99	0.02	-2.14753E-001	6.32523E-006	0.00000E+000	-2.14850E-001	8.15923E-005	8	..........a	-327.66
	102	0.0206	-1.84753E-001	6.75525E-006	0.00000E+000	-1.84850E-001	-2.18408E-004	8	..........a	-327.66
	105	0.0212	-1.54803E-001	7.03526E-006	0.00000E+000	-1.54850E-001	8.15923E-005	8	..........a	-327.66
	108	0.0218	-1.25003E-001	7.36527E-006	0.00000E+000	-1.24850E-001	8.15923E-005	8	..........a	-327.66
	111	0.0224	-9.47529E-002	7.68529E-006	0.00000E+000	-9.48500E-002	8.15923E-005	8	..........a	-327.66
	114	0.023	-6.47529E-002	8.00530E-006	0.00000E+000	-6.48500E-002	8.15923E-005	8	..........a	-327.66
	117	0.0236	-3.47529E-002	8.32531E-006	0.00000E+000	-3.48500E-002	8.15923E-005	8	..........a	-327.66
	120	0.0242	-4.65289E-003	8.65532E-006	0.00000E+000	-4.84999E-003	8.15923E-005	8	..........a	-327.66
	123	0.0248	2.50971E-002	9.00534E-006	0.00000E+000	2.51500E-002	8.15923E-005	8	..........a	-327.66
	126	0.0254	5.52471E-002	9.30535E-006	0.00000E+000	5.51500E-002	8.15923E-005	8	..........a	-327.66
	129	0.026	8.52471E-002	9.74536E-006	0.00000E+000	8.51500E-002	8.15923E-005	8	..........a	-327.66
	132	0.0266	1.15347E-001	1.01754E-005	0.00000E+000	1.15150E-001	8.15923E-005	8	..........a	-327.66
	135	0.0272	1.45247E-001	1.05554E-005	0.00000E+000	1.45150E-001	8.15923E-005	8	..........a	-327.66
	138	0.0278	1.75347E-001	1.10454E-005	0.00000E+000	1.75150E-001	8.15923E-005	8	..........a	-327.66
	141	0.0284	2.05247E-001	1.15854E-005	0.00000E+000	2.05150E-001	8.15923E-005	8	..........a	-327.66
	144	0.029	2.35247E-001	1.21855E-005	0.00000E+000	2.35150E-001	8.15923E-005	8	..........a	-327.66
	147	0.0296	2.65097E-001	1.28755E-005	0.00000E+000	2.65150E-001	-3.18408E-004	8	..........a	-327.66
	150	0.0302	2.95147E-001	1.37955E-005	0.00000E+000	2.95150E-001	8.15923E-005	8	..........a	-327.66
	153	0.0308	3.25247E-001	1.47356E-005	0.00000E+000	3.25150E-001	8.15923E-005	8	..........a	-327.66
	156	0.0314	3.55247E-001	1.53856E-005	0.00000E+000	3.55150E-001	8.15923E-005	8	..........a	-327.66
	159	0.032	3.85247E-001	1.58956E-005	0.00000E+000	3.85150E-001	8.15923E-005	8	..........a	-327.66
	162	0.0326	4.15247E-001	1.63456E-005	0.00000E+000	4.15150E-001	8.15923E-005	8	..........a	-327.66
	165	0.0332	4.45147E-001	1.69656E-005	0.00000E+000	4.45150E-001	8.15923E-005	8	..........a	-327.66
	168	0.0338	4.74997E-001	1.74957E-005	0.00000E+000	4.75150E-001	8.15923E-005	8	..........a	-327.66
	171	0.0344	5.05147E-001	1.80757E-005	0.00000E+000	5.05150E-001	8.15923E-005	8	..........a	-327.66
	174	0.035	5.34947E-001	1.85057E-005	0.00000E+000	5.35150E-001	8.15923E-005	8	..........a	-327.66
	177	0.0356	5.65147E-001	1.89057E-005	0.00000E+000	5.65150E-001	8.15923E-005	8	..........a	-327.66
	180	0.0362	5.95147E-001	1.92257E-005	0.00000E+000	5.95150E-001	8.15923E-005	8	..........a	-327.66
	183	0.0368	6.25147E-001	1.95957E-005	0.00000E+000	6.25150E-001	8.15923E-005	8	..........a	-327.66
	186	0.0374	6.55047E-001	1.99758E-005	0.00000E+000	6.55150E-001	8.15923E-005	8	..........a	-327.66
	189	0.038	6.85047E-001	2.03458E-005	0.00000E+000	6.85150E-001	8.15923E-005	8	..........a	-327.66
	192	0.0386	7.14947E-001	2.06758E-005	0.00000E+000	7.15150E-001	8.15923E-005	8	..........a	-327.66
	195	0.0392	7.45047E-001	2.09458E-005	0.00000E+000	7.45150E-001	8.15923E-005	8	..........a	-327.66
	198	0.0398	7.75197E-001	2.10658E-005	0.00000E+000	7.75150E-001	8.15923E-005	8	..........a	-327.66
	200	0.0402	7.94947E-001	2.12058E-005	0.00000E+000	7.95150E-001	8.15923E-005	8	..........a	-327.66
CURVE2	TABLE
	Pt	T	Vf	Im	Vu	Sig	Ach	IERange	Over	Temp
	#	s	V vs. Ref.	A	V	V	V	#	bits	deg C
	201	0.0404	7.89947E-001	1.88657E-005	0.00000E+000	7.90000E-001	8.15923E-005	8	..........a	-327.66
	204	0.041	7.60047E-001	1.25655E-005	0.00000E+000	7.60000E-001	8.15923E-005	8	..........a	-327.66
	207	0.0416	7.29897E-001	8.51532E-006	0.00000E+000	7.30000E-001	8.15923E-005	8	..........a	-327.66
	210	0.0422	7.00047E-001	5.50520E-006	0.00000E+000	7.00000E-001	8.15923E-005	8	..........a	-327.66
	213	0.0428	6.69947E-001	3.10511E-006	0.00000E+000	6.70000E-001	8.15923E-005	8	..........a	-327.66
	216	0.0434	6.39997E-001	1.15504E-006	0.00000E+000	6.40000E-001	8.15923E-005	8	..........a	-327.66
	219	0.044	6.09847E-001	-5.65030E-007	0.00000E+000	6.10000E-001	8.15923E-005	8	..........a	-327.66
	222	0.0446	5.79997E-001	-2.05509E-006	0.00000E+000	5.80000E-001	8.15923E-005	8	..........a	-327.66
	225	0.0452	5.50047E-001	-3.31514E-006	0.00000E+000	5.50000E-001	8.15923E-005	8	..........a	-327.66
	228	0.0458	5.19947E-001	-4.40518E-006	0.00000E+000	5.20000E-001	8.15923E-005	8	..........a	-327.66
	231	0.0464	4.90047E-001	-5.44522E-006	0.00000E+000	4.90000E-001	8.15923E-005	8	..........a	-327.66
	234	0.047	4.59947E-001	-6.27525E-006	0.00000E+000	4.60000E-001	8.15923E-005	8	..........a	-327.66
	237	0.0476	4.29847E-001	-7.11528E-006	0.00000E+000	4.30000E-001	8.15923E-005	8	..........a	-327.66
	240	0.0482	4.00147E-001	-7.97531E-006	0.00000E+000	4.00000E-001	8.15923E-005	8	..........a	-327.66
	243	0.0488	3.70047E-001	-8.76534E-006	0.00000E+000	3.70000E-001	8.15923E-005	8	..........a	-327.66
	246	0.0494	3.40047E-001	-9.73538E-006	0.00000E+000	3.40000E-001	8.15923E-005	8	..........a	-327.66
	249	0.05	3.09847E-001	-1.06354E-005	0.00000E+000	3.10000E-001	8.15923E-005	8	..........a	-327.66
	252	0.0506	2.79947E-001	-1.14854E-005	0.00000E+000	2.80000E-001	8.15923E-005	8	..........a	-327.66
	255	0.0512	2.49947E-001	-1.22555E-005	0.00000E+000	2.50000E-001	8.15923E-005	8	..........a	-327.66
	258	0.0518	2.19747E-001	-1.30555E-005	0.00000E+000	2.20000E-001	8.15923E-005	8	..........a	-327.66
	261	0.0524	1.90047E-001	-1.37155E-005	0.00000E+000	1.90000E-001	8.15923E-005	8	..........a	-327.66
	264	0.053	1.60147E-001	-1.43356E-005	0.00000E+000	1.60000E-001	8.15923E-005	8	..........a	-327.66
	267	0.0536	1.30047E-001	-1.47756E-005	0.00000E+000	1.30000E-001	8.15923E-005	8	..........a	-327.66
	270	0.0542	1.00147E-001	-1.51156E-005	0.00000E+000	1.00000E-001	8.15923E-005	8	..........a	-327.66
	273	0.0548	7.01471E-002	-1.54756E-005	0.00000E+000	7.00000E-002	8.15923E-005	8	..........a	-327.66
	276	0.0554	4.02471E-002	-1.58456E-005	0.00000E+000	4.00000E-002	8.15923E-005	8	..........a	-327.66
	279	0.056	9.94711E-003	-1.61556E-005	0.00000E+000	1.00000E-002	8.15923E-005	8	..........a	-327.66
	282	0.0566	-1.98529E-002	-1.62056E-005	0.00000E+000	-2.00000E-002	8.15923E-005	8	..........a	-327.66
	285	0.0572	-4.99529E-002	-1.59956E-005	0.00000E+000	-5.00000E-002	8.15923E-005	8	..........a	-327.66
	288	0.0578	-7.98529E-002	-1.57956E-005	0.00000E+000	-8.00000E-002	8.15923E-005	8	..........a	-327.66
	291	0.0584	-1.10153E-001	-1.54556E-005	0.00000E+000	-1.10000E-001	8.15923E-005	8	..........a	-327.66
	294	0.059	-1.39853E-001	-1.52956E-005	0.00000E+000	-1.40000E-001	8.15923E-005	8	..........a	-327.66
	297	0.0596	-1.69953E-001	-1.50256E-005	0.00000E+000	-1.70000E-001	8.15923E-005	8	..........a	-327.66
	300	0.0602	-1.99853E-001	-1.49056E-005	0.00000E+000	-2.00000E-001	8.15923E-005	8	..........a	-327.66
	303	0.0608	-2.29853E-001	-1.47156E-005	0.00000E+000	-2.30000E-001	8.15923E-005	8	..........a	-327.66
	306	0.0614	-2.59653E-001	-1.44456E-005	0.00000E+000	-2.60000E-001	8.15923E-005	8	..........a	-327.66
	309	0.062	-2.89953E-001	-1.42156E-005	0.00000E+000	-2.90000E-001	8.15923E-005	8	..........a	-327.66
	312	0.0626	-3.19953E-001	-1.38855E-005	0.00000E+000	-3.20000E-001	8.15923E-005	8	..........a	-327.66
	315	0.0632	-3.50053E-001	-1.36955E-005	0.00000E+000	-3.50000E-001	8.15923E-005	8	..........a	-327.66
	318	0.0638	-3.79853E-001	-1.35155E-005	0.00000E+000	-3.80000E-001	8.15923E-005	8	..........a	-327.66
	321	0.0644	-4.09953E-001	-1.34155E-005	0.00000E+000	-4.10000E-001	8.15923E-005	8	..........a	-327.66
	324	0.065	-4.39753E-001	-1.32755E-005	0.00000E+000	-4.40000E-001	8.15923E-005	8	..........a	-327.66
	327	0.0656	-4.69953E-001	-1.32755E-005	0.00000E+000	-4.70000E-001	8.15923E-005	8	..........a	-327.66
	330	0.0662	-4.99953E-001	-1.32855E-005	0.00000E+000	-5.00000E-001	8.15923E-005	8	..........a	-327.66
	333	0.0668	-5.29853E-001	-1.32855E-005	0.00000E+000	-5.30000E-001	8.15923E-005	8	..........a	-327.66
	336	0.0674	-5.59853E-001	-1.34155E-005	0.00000E+000	-5.60000E-001	-3.18408E-004	8	..........a	-327.66
	339	0.068	-5.89853E-001	-1.35555E-005	0.00000E+000	-5.90000E-001	8.15923E-005	8	..........a	-327.66
	342	0.0686	-5.79853E-001	-9.33536E-006	0.00000E+000	-5.80000E-001	8.15923E-005	8	..........a	-327.66
	345	0.0692	-5.50053E-001	-5.65522E-006	0.00000E+000	-5.50000E-001	8.15923E-005	8	..........a	-327.66
	348	0.0698	-5.19953E-001	-3.17513E-006	0.00000E+000	-5.20000E-001	8.15923E-005	8	..........a	-327.66
	351	0.0704	-4.89953E-001	-1.34506E-006	0.00000E+000	-4.90000E-001	8.15923E-005	8	..........a	-327.66
[...]
	2702	0.5406	6.20047E-001	1.89857E-005	0.00000E+000	6.20000E-001	8.15923E-005	8	..........a	-327.66
	2705	0.5412	6.49947E-001	1.91957E-005	0.00000E+000	6.50000E-001	8.15923E-005	8	..........a	-327.66
	2708	0.5418	6.80247E-001	1.93857E-005	0.00000E+000	6.80000E-001	8.15923E-005	8	..........a	-327.66
	2711	0.5424	7.09847E-001	1.95357E-005	0.00000E+000	7.10000E-001	8.15923E-005	8	..........a	-327.66
	2714	0.543	7.39947E-001	1.96757E-005	0.00000E+000	7.40000E-001	8.15923E-005	8	..........a	-327.66
	2717	0.5436	7.69947E-001	1.96857E-005	0.00000E+000	7.70000E-001	8.15923E-005	8	..........a	-327.66
	2720	0.5442	7.99847E-001	1.97057E-005	0.00000E+000	8.00000E-001	8.15923E-005	8	..........a	-327.66
CURVE11	TABLE
	Pt	T	Vf	Im	Vu	Sig	Ach	IERange	Over	Temp
	#	s	V vs. Ref.	A	V	V	V	#	bits	deg C
	2721	0.5444	7.89847E-001	1.66456E-005	0.00000E+000	7.90000E-001	8.15923E-005	8	..........a	-327.66
	2722	0.5446	7.80047E-001	1.43955E-005	0.00000E+000	7.80000E-001	8.15923E-005	8	..........a	-327.66
	2723	0.5448	7.70047E-001	1.24955E-005	0.00000E+000	7.70000E-001	8.15923E-005	8	..........a	-327.66
	2724	0.545	7.59847E-001	1.09354E-005	0.00000E+000	7.60000E-001	8.15923E-005	8	..........a	-327.66
	2725	0.5452	7.50047E-001	9.58536E-006	0.00000E+000	7.50000E-001	8.15923E-005	8	..........a	-327.66
	2726	0.5454	7.40247E-001	8.32531E-006	0.00000E+000	7.40000E-001	8.15923E-005	8	..........a	-327.66
	2727	0.5456	7.29897E-001	7.16527E-006	0.00000E+000	7.30000E-001	8.15923E-005	8	..........a	-327.66
	2728	0.5458	7.20047E-001	6.17523E-006	0.00000E+000	7.20000E-001	8.15923E-005	8	..........a	-327.66
	2729	0.546	7.09947E-001	5.31520E-006	0.00000E+000	7.10000E-001	8.15923E-005	8	..........a	-327.66
	2730	0.5462	7.00047E-001	4.40516E-006	0.00000E+000	7.00000E-001	8.15923E-005	8	..........a	-327.66
	2731	0.5464	6.89947E-001	3.59513E-006	0.00000E+000	6.90000E-001	8.15923E-005	8	..........a	-327.66
	2732	0.5466	6.79747E-001	2.83510E-006	0.00000E+000	6.80000E-001	8.15923E-005	8	..........a	-327.66
	2733	0.5468	6.69947E-001	2.14507E-006	0.00000E+000	6.70000E-001	8.15923E-005	8	..........a	-327.66
	2734	0.547	6.59847E-001	1.52505E-006	0.00000E+000	6.60000E-001	8.15923E-005	8	..........a	-327.66
	2735	0.5472	6.49947E-001	8.95026E-007	0.00000E+000	6.50000E-001	8.15923E-005	8	..........a	-327.66
	2736	0.5474	6.39797E-001	3.25004E-007	0.00000E+000	6.40000E-001	8.15923E-005	8	..........a	-327.66
	2737	0.5476	6.30047E-001	-2.15016E-007	0.00000E+000	6.30000E-001	8.15923E-005	8	..........a	-327.66
	2738	0.5478	6.20047E-001	-7.05035E-007	0.00000E+000	6.20000E-001	8.15923E-005	8	..........a	-327.66
	2739	0.548	6.10047E-001	-1.22505E-006	0.00000E+000	6.10000E-001	8.15923E-005	8	..........a	-327.66
	2740	0.5482	5.99947E-001	-1.68507E-006	0.00000E+000	6.00000E-001	8.15923E-005	8	..........a	-327.66
	2741	0.5484	5.89947E-001	-2.12509E-006	0.00000E+000	5.90000E-001	8.15923E-005	8	..........a	-327.66
	2742	0.5486	5.80247E-001	-2.59511E-006	0.00000E+000	5.80000E-001	8.15923E-005	8	..........a	-327.66
	2743	0.5488	5.70047E-001	-3.01512E-006	0.00000E+000	5.70000E-001	8.15923E-005	8	..........a	-327.66
	2744	0.549	5.60147E-001	-3.35514E-006	0.00000E+000	5.60000E-001	8.15923E-005	8	..........a	-327.66
	2745	0.5492	5.49947E-001	-3.70515E-006	0.00000E+000	5.50000E-001	8.15923E-005	8	..........a	-327.66
	2746	0.5494	5.40247E-001	-4.13517E-006	0.00000E+000	5.40000E-001	8.15923E-005	8	..........a	-327.66
	2747	0.5496	5.29947E-001	-4.45518E-006	0.00000E+000	5.30000E-001	8.15923E-005	8	..........a	-327.66
	2748	0.5498	5.19947E-001	-4.76519E-006	0.00000E+000	5.20000E-001	8.15923E-005	8	..........a	-327.66
	2749	0.55	5.09947E-001	-5.09520E-006	0.00000E+000	5.10000E-001	8.15923E-005	8	..........a	-327.66
	2750	0.5502	5.00147E-001	-5.42522E-006	0.00000E+000	5.00000E-001	8.15923E-005	8	..........a	-327.66
	2751	0.5504	4.89947E-001	-5.75523E-006	0.00000E+000	4.90000E-001	8.15923E-005	8	..........a	-327.66
	2752	0.5506	4.80047E-001	-6.05524E-006	0.00000E+000	4.80000E-001	8.15923E-005	8	..........a	-327.66
	2753	0.5508	4.69947E-001	-6.37525E-006	0.00000E+000	4.70000E-001	8.15923E-005	8	..........a	-327.66
	2754	0.551	4.60247E-001	-6.68526E-006	0.00000E+000	4.60000E-001	8.15923E-005	8	..........a	-327.66
	2755	0.5512	4.49947E-001	-6.97527E-006	0.00000E+000	4.50000E-001	8.15923E-005	8	..........a	-327.66
	2756	0.5514	4.40097E-001	-7.23528E-006	0.00000E+000	4.40000E-001	8.15923E-005	8	..........a	-327.66
	2757	0.5516	4.29847E-001	-7.53530E-006	0.00000E+000	4.30000E-001	8.15923E-005	8	..........a	-327.66
	2758	0.5518	4.20047E-001	-7.84531E-006	0.00000E+000	4.20000E-001	8.15923E-005	8	..........a	-327.66
	2759	0.552	4.10047E-001	-8.16532E-006	0.00000E+000	4.10000E-001	1.81592E-004	8	..........a	-327.66
	2760	0.5522	4.00147E-001	-8.44533E-006	0.00000E+000	4.00000E-001	8.15923E-005	8	..........a	-327.66
	2761	0.5524	3.90047E-001	-8.77534E-006	0.00000E+000	3.90000E-001	8.15923E-005	8	..........a	-327.66
	2762	0.5526	3.80047E-001	-9.09536E-006	0.00000E+000	3.80000E-001	-3.18408E-004	8	..........a	-327.66
	2763	0.5528	3.70047E-001	-9.41537E-006	0.00000E+000	3.70000E-001	8.15923E-005	8	..........a	-327.66
	2764	0.553	3.59847E-001	-9.69538E-006	0.00000E+000	3.60000E-001	8.15923E-005	8	..........a	-327.66
	2765	0.5532	3.50047E-001	-1.00754E-005	0.00000E+000	3.50000E-001	8.15923E-005	8	..........a	-327.66
	2766	0.5534	3.40047E-001	-1.03254E-005	0.00000E+000	3.40000E-001	8.15923E-005	8	..........a	-327.66
	2767	0.5536	3.30047E-001	-1.05654E-005	0.00000E+000	3.30000E-001	8.15923E-005	8	..........a	-327.66
	2768	0.5538	3.19997E-001	-1.07954E-005	0.00000E+000	3.20000E-001	8.15923E-005	8	..........a	-327.66
	2769	0.554	3.10047E-001	-1.09754E-005	0.00000E+000	3.10000E-001	8.15923E-005	8	..........a	-327.66
	2770	0.5542	3.00147E-001	-1.11754E-005	0.00000E+000	3.00000E-001	8.15923E-005	8	..........a	-327.66
	2771	0.5544	2.90047E-001	-1.13854E-005	0.00000E+000	2.90000E-001	8.15923E-005	8	..........a	-327.66
	2772	0.5546	2.80047E-001	-1.16255E-005	0.00000E+000	2.80000E-001	8.15923E-005	8	..........a	-327.66
	2773	0.5548	2.70047E-001	-1.18455E-005	0.00000E+000	2.70000E-001	8.15923E-005	8	..........a	-327.66
	2774	0.555	2.60047E-001	-1.21055E-005	0.00000E+000	2.60000E-001	8.15923E-005	8	..........a	-327.66
	2775	0.5552	2.49897E-001	-1.23855E-005	0.00000E+000	2.50000E-001	8.15923E-005	8	..........a	-327.66
	2776	0.5554	2.40047E-001	-1.26255E-005	0.00000E+000	2.40000E-001	8.15923E-005	8	..........a	-327.66
	2777	0.5556	2.29947E-001	-1.28255E-005	0.00000E+000	2.30000E-001	8.15923E-005	8	..........a	-327.66
	2778	0.5558	2.19847E-001	-1.30555E-005	0.00000E+000	2.20000E-001	8.15923E-005	8	..........a	-327.66
	2779	0.556	2.10047E-001	-1.32755E-005	0.00000E+000	2.10000E-001	8.15923E-005	8	..........a	-327.66
	2780	0.5562	2.00047E-001	-1.35155E-005	0.00000E+000	2.00000E-001	-3.18408E-004	8	..........a	-327.66
	2781	0.5564	1.90047E-001	-1.36355E-005	0.00000E+000	1.90000E-001	8.15923E-005	8	..........a	-327.66
	2782	0.5566	1.80147E-001	-1.38355E-005	0.00000E+000	1.80000E-001	8.15923E-005	8	..........a	-327.66
	2783	0.5568	1.69947E-001	-1.39755E-005	0.00000E+000	1.70000E-001	8.15923E-005	8	..........a	-327.66
	2784	0.557	1.60047E-001	-1.40855E-005	0.00000E+000	1.60000E-001	8.15923E-005	8	..........a	-327.66
	2785	0.5572	1.50047E-001	-1.42756E-005	0.00000E+000	1.50000E-001	-2.18408E-004	8	..........a	-327.66
	2786	0.5574	1.40047E-001	-1.43756E-005	0.00000E+000	1.40000E-001	8.15923E-005	8	..........a	-327.66
	2787	0.5576	1.30047E-001	-1.44556E-005	0.00000E+000	1.30000E-001	8.15923E-005	8	..........a	-327.66
	2788	0.5578	1.20047E-001	-1.46056E-005	0.00000E+000	1.20000E-001	8.15923E-005	8	..........a	-327.66
	2789	0.558	1.10147E-001	-1.46956E-005	0.00000E+000	1.10000E-001	8.15923E-005	8	..........a	-327.66
	2790	0.5582	1.00147E-001	-1.47956E-005	0.00000E+000	1.00000E-001	8.15923E-005	8	..........a	-327.66
	2791	0.5584	9.00471E-002	-1.48556E-005	0.00000E+000	9.00000E-002	-2.18408E-004	8	..........a	-327.66
	2792	0.5586	8.00471E-002	-1.49656E-005	0.00000E+000	8.00000E-002	8.15923E-005	8	..........a	-327.66
	2793	0.5588	7.00471E-002	-1.50756E-005	0.00000E+000	7.00000E-002	8.15923E-005	8	..........a	-327.66
	2794	0.559	6.00471E-002	-1.51556E-005	0.00000E+000	6.00000E-002	8.15923E-005	8	..........a	-327.66
	2795	0.5592	5.00471E-002	-1.52756E-005	0.00000E+000	5.00000E-002	8.15923E-005	8	..........a	-327.66
	2796	0.5594	3.99471E-002	-1.53456E-005	0.00000E+000	4.00000E-002	8.15923E-005	8	..........a	-327.66
	2797	0.5596	3.00471E-002	-1.53956E-005	0.00000E+000	3.00000E-002	8.15923E-005	8	..........a	-327.66
	2798	0.5598	2.00971E-002	-1.55156E-005	0.00000E+000	2.00000E-002	8.15923E-005	8	..........a	-327.66