File: data/raw/batch_data/20240424_T_GM0016_HL03_E05_CV50K.DTA
EXPLAIN
TAG	CV
TITLE	LABEL	Cyclic Voltammetry	Test &Identifier
DATE	LABEL	4/24/2024	Date
TIME	LABEL	17:54:25	Time
NOTES	NOTES	1	&Notes...

PSTAT	PSTAT	REF600P-43058	Potentiostat
VINIT	POTEN	0.00000E+000	T	Initial &E (V)
VLIMIT1	POTEN	-6.00000E-001	F	Scan Limit &1 (V)
VLIMIT2	POTEN	8.00000E-001	F	Scan Limit &2 (V)
VFINAL	POTEN	0.00000E+000	T	Final &E (V)
SCANRATE	QUANT	4.99999E+004	&Scan Rate (mV/s)
STEPSIZE	QUANT	1.00000E+001	St&ep Size (mV)
CYCLES	IQUANT	10	C&ycles (#)
IMODE	SELECTOR	0	I/E Range &Mode
IRANGE	QUANT	1.00000E-005	&Max Current (mA)
AREA	QUANT	1.00000E+000	Electrode &Area (cm^2)
ELECTRODETYPE	SELECTOR	0	Electrode Type
STRIPPING	TOGGLE	F	Used for Stripping
POLARITY	TOGGLE	F	Signal Polarity
CONDIT	TWOPARAM	F	1.50000E+001	0.00000E+000	Conditionin&g	Time(s)	E(V)
DELAY	TWOPARAM	T	1.00000E+001	0.00000E+000	Init. De&lay	Time(s)	Stab.(mV/s)
EQDELAY	QUANT	1.00000E+001	Equil. &Time (s)
IRCOMP	SELECTOR	0	IRCom&p
PFCOR	QUANT	5.00000E+001	PF Corr. (ohm)
SAMPLINGMODE	SELECTOR	1	Sampling &Mode
OCVCURVE	TABLE	39
	Pt	T	Vf	Vm	Ach	Over	Temp
	#	s	V vs. Ref.	V	V	bits	deg C
	0	0.258333	-4.23392E-002	-4.23392E-002	2.46459E-004	..........a	-327.66
	1	0.516667	-4.23424E-002	-4.25070E-002	2.43859E-004	..........a	-327.66
	2	0.775	-4.23623E-002	-4.26780E-002	2.23792E-004	..........a	-327.66
	3	1.03333	-4.24195E-002	-4.28482E-002	2.38126E-004	..........a	-327.66
	4	1.29167	-4.25240E-002	-4.30192E-002	2.30126E-004	..........a	-327.66
	5	1.55	-4.26667E-002	-4.31889E-002	2.47392E-004	..........a	-327.66
	6	1.80833	-4.28305E-002	-4.33593E-002	2.38526E-004	..........a	-327.66
	7	2.06667	-4.30017E-002	-4.35232E-002	2.34792E-004	..........a	-327.66
	8	2.325	-4.31734E-002	-4.36925E-002	2.52326E-004	..........a	-327.66
	9	2.58333	-4.33433E-002	-4.38599E-002	2.44326E-004	..........a	-327.66
	10	2.84167	-4.35117E-002	-4.40244E-002	2.36592E-004	..........a	-327.66
	11	3.1	-4.36790E-002	-4.41911E-002	2.37792E-004	..........a	-327.66
	12	3.35833	-4.38457E-002	-4.43536E-002	2.42126E-004	..........a	-327.66
	13	3.61667	-4.40117E-002	-4.45237E-002	2.26792E-004	..........a	-327.66
	14	3.875	-4.41776E-002	-4.46963E-002	2.27726E-004	..........a	-327.66
	15	4.13333	-4.43443E-002	-4.48666E-002	2.43459E-004	..........a	-327.66
	16	4.39167	-4.45124E-002	-4.50258E-002	2.39392E-004	..........a	-327.66
	17	4.65	-4.46811E-002	-4.51946E-002	2.29859E-004	..........a	-327.66
	18	4.90833	-4.48487E-002	-4.53538E-002	2.41926E-004	..........a	-327.66
	19	5.16667	-4.50147E-002	-4.55180E-002	2.37392E-004	..........a	-327.66
	20	5.425	-4.51790E-002	-4.56789E-002	2.30259E-004	..........a	-327.66
	21	5.68333	-4.53421E-002	-4.58380E-002	2.34259E-004	..........a	-327.66
	22	5.94167	-4.55042E-002	-4.60011E-002	2.41259E-004	..........a	-327.66
	23	6.2	-4.56657E-002	-4.61624E-002	2.36392E-004	..........a	-327.66
	24	6.45833	-4.58268E-002	-4.63163E-002	2.39926E-004	..........a	-327.66
	25	6.71667	-4.59873E-002	-4.64692E-002	2.40259E-004	..........a	-327.66
	26	6.975	-4.61461E-002	-4.66260E-002	2.35926E-004	..........a	-327.66
	27	7.23333	-4.63030E-002	-4.67809E-002	2.36526E-004	..........a	-327.66
	28	7.49167	-4.64587E-002	-4.69367E-002	2.43926E-004	..........a	-327.66
	29	7.75	-4.66137E-002	-4.70853E-002	2.47592E-004	..........a	-327.66
	30	8.00833	-4.67682E-002	-4.72353E-002	2.47926E-004	..........a	-327.66
	31	8.26667	-4.69216E-002	-4.73942E-002	2.43392E-004	..........a	-327.66
	32	8.525	-4.70743E-002	-4.75459E-002	2.27192E-004	..........a	-327.66
	33	8.78333	-4.72271E-002	-4.77001E-002	2.31526E-004	..........a	-327.66
	34	9.04167	-4.73804E-002	-4.78503E-002	2.48192E-004	..........a	-327.66
	35	9.3	-4.75338E-002	-4.80030E-002	2.40992E-004	..........a	-327.66
	36	9.5583	-4.76867E-002	-4.81522E-002	2.29592E-004	..........a	-327.66
	37	9.8167	-4.78387E-002	-4.82986E-002	2.39059E-004	..........a	-327.66
	38	10.075	-4.79894E-002	-4.84416E-002	2.51526E-004	..........a	-327.66
EOC	QUANT	-0.0479894	Open Circuit (V)
PSTATMODEL	IQUANT	7	Pstat Model
PSTATSECTION	LABEL	REF600P-43058	Pstat Section
PSTATSERIALNO	LABEL	43058	Pstat Serial Number
CTRLMODE	IQUANT	1	Control Mode
ELECTROMETER	IQUANT	0	RE=0 or CS=1
IESTAB	IQUANT	2	I/E Stability
CASPEED	IQUANT	4	Control Amp Speed
CONVENTION	IQUANT	1	Current Convention
ICHRANGE	IQUANT	2	Ich Range
ICHRANGEMODE	TOGGLE	F	Ich Auto Range
ICHOFFSETENABLE	TOGGLE	F	Ich Offset Enable
ICHOFFSET	QUANT	0	Ich Offset (V)
ICHFILTER	IQUANT	1	Ich Filter
VCHRANGE	IQUANT	2	Vch Range
VCHRANGEMODE	TOGGLE	F	Vch Auto Range
VCHOFFSETENABLE	TOGGLE	F	Vch Offset Enable
VCHOFFSET	QUANT	0	Vch Offset (V)
VCHFILTER	IQUANT	1	Vch Filter
ACHRANGE	IQUANT	2	Ach Range
ACHOFFSETENABLE	TOGGLE	F	Ach Offset Enable
ACHOFFSET	QUANT	0	Ach Offset (V)
ACHFILTER	IQUANT	1	Ach Filter
IERANGELOWERLIMIT	IQUANT	1	I/E Range Lower Limit
IERANGEMODE	TOGGLE	T	I/E AutoRange
IERANGE	IQUANT	4	I/E Range
POSFEEDENABLE	TOGGLE	F	Positive Feedback IR Comp
POSFEEDRESISTANCE	QUANT	0	Positive Feedback Resistance (ohm)
ACHSELECT	IQUANT	4	Ach Select
SENSECABLEID	IQUANT	7	Sense Cable ID
PWRCABLEID	IQUANT	7	Power Cable ID
DCCALDATE	LABEL	3/22/2024	DC Calibration Date
ACCALDATE	LABEL	3/22/2024	AC Calibration Date
THERMOSELECT	IQUANT	1	Thermo Select
FRAMEWORKVERSION	LABEL	7.8.4	Framework Version
INSTRUMENTVERSION	LABEL	4.42	Instrument Version
CURVE1	TABLE
	Pt	T	Vf	Im	Vu	Sig	Ach	IERange	Over	Temp
	#	s	V vs. Ref.	A	V	V	V	#	bits	deg C
	0	0.0002	-4.80029E-002	1.94999E-007	0.00000E+000	-4.80000E-002	8.15923E-005	8	..........a	-327.66
	2	0.0006	-6.78529E-002	-1.40506E-006	0.00000E+000	-6.80000E-002	8.15923E-005	8	..........a	-327.66
	4	0.001	-8.80529E-002	-2.40510E-006	0.00000E+000	-8.80000E-002	8.15923E-005	8	..........a	-327.66
	6	0.0014	-1.07753E-001	-3.12513E-006	0.00000E+000	-1.08000E-001	-2.18408E-004	8	..........a	-327.66
	8	0.0018	-1.27953E-001	-3.73515E-006	0.00000E+000	-1.28000E-001	8.15923E-005	8	..........a	-327.66
	10	0.0022	-1.47953E-001	-4.21517E-006	0.00000E+000	-1.48000E-001	8.15923E-005	8	..........a	-327.66
	12	0.0026	-1.67953E-001	-4.57518E-006	0.00000E+000	-1.68000E-001	8.15923E-005	8	..........a	-327.66
	14	0.003	-1.87853E-001	-4.86519E-006	0.00000E+000	-1.88000E-001	8.15923E-005	8	..........a	-327.66
	16	0.0034	-2.07953E-001	-5.16521E-006	0.00000E+000	-2.08000E-001	8.15923E-005	8	..........a	-327.66
	18	0.0038	-2.27853E-001	-5.44522E-006	0.00000E+000	-2.28000E-001	8.15923E-005	8	..........a	-327.66
	20	0.0042	-2.47753E-001	-5.65522E-006	0.00000E+000	-2.48000E-001	8.15923E-005	8	..........a	-327.66
	22	0.0046	-2.67953E-001	-5.87523E-006	0.00000E+000	-2.68000E-001	8.15923E-005	8	..........a	-327.66
	24	0.005	-2.87953E-001	-6.09524E-006	0.00000E+000	-2.88000E-001	8.15923E-005	8	..........a	-327.66
	26	0.0054	-3.07753E-001	-6.36525E-006	0.00000E+000	-3.08000E-001	8.15923E-005	8	..........a	-327.66
	28	0.0058	-3.27953E-001	-6.51526E-006	0.00000E+000	-3.28000E-001	8.15923E-005	8	..........a	-327.66
	30	0.0062	-3.47853E-001	-6.78527E-006	0.00000E+000	-3.48000E-001	8.15923E-005	8	..........a	-327.66
	32	0.0066	-3.67953E-001	-7.04528E-006	0.00000E+000	-3.68000E-001	8.15923E-005	8	..........a	-327.66
	34	0.007	-3.87753E-001	-7.25529E-006	0.00000E+000	-3.88000E-001	8.15923E-005	8	..........a	-327.66
	36	0.0074	-4.07953E-001	-7.53530E-006	0.00000E+000	-4.08000E-001	8.15923E-005	8	..........a	-327.66
	38	0.0078	-4.27853E-001	-7.77531E-006	0.00000E+000	-4.28000E-001	8.15923E-005	8	..........a	-327.66
	40	0.0082	-4.47903E-001	-8.11532E-006	0.00000E+000	-4.48000E-001	8.15923E-005	8	..........a	-327.66
	42	0.0086	-4.67903E-001	-8.38533E-006	0.00000E+000	-4.68000E-001	8.15923E-005	8	..........a	-327.66
	44	0.009	-4.87853E-001	-8.64534E-006	0.00000E+000	-4.88000E-001	8.15923E-005	8	..........a	-327.66
	46	0.0094	-5.07853E-001	-9.01535E-006	0.00000E+000	-5.08000E-001	8.15923E-005	8	..........a	-327.66
	48	0.0098	-5.27753E-001	-9.25536E-006	0.00000E+000	-5.28000E-001	8.15923E-005	8	..........a	-327.66
	50	0.0102	-5.47753E-001	-9.55537E-006	0.00000E+000	-5.48000E-001	8.15923E-005	8	..........a	-327.66
	52	0.0106	-5.67853E-001	-9.85538E-006	0.00000E+000	-5.68000E-001	8.15923E-005	8	..........a	-327.66
	54	0.011	-5.87803E-001	-1.01454E-005	0.00000E+000	-5.88000E-001	8.15923E-005	8	..........a	-327.66
	56	0.0114	-5.87753E-001	-8.53533E-006	0.00000E+000	-5.88000E-001	8.15923E-005	8	..........a	-327.66
	58	0.0118	-5.67753E-001	-6.00524E-006	0.00000E+000	-5.68000E-001	8.15923E-005	8	..........a	-327.66
	60	0.0122	-5.47853E-001	-4.15517E-006	0.00000E+000	-5.48000E-001	8.15923E-005	8	..........a	-327.66
	62	0.0126	-5.28053E-001	-2.59511E-006	0.00000E+000	-5.28000E-001	8.15923E-005	8	..........a	-327.66
	64	0.013	-5.07853E-001	-1.36506E-006	0.00000E+000	-5.08000E-001	8.15923E-005	8	..........a	-327.66
	66	0.0134	-4.87803E-001	-2.55018E-007	0.00000E+000	-4.88000E-001	8.15923E-005	8	..........a	-327.66
	68	0.0138	-4.67803E-001	6.45017E-007	0.00000E+000	-4.68000E-001	8.15923E-005	8	..........a	-327.66
	70	0.0142	-4.47953E-001	1.58505E-006	0.00000E+000	-4.48000E-001	8.15923E-005	8	..........a	-327.66
	72	0.0146	-4.27753E-001	2.15507E-006	0.00000E+000	-4.28000E-001	8.15923E-005	8	..........a	-327.66
	74	0.015	-4.07953E-001	2.76510E-006	0.00000E+000	-4.08000E-001	-1.18408E-004	8	..........a	-327.66
	76	0.0154	-3.87853E-001	3.24512E-006	0.00000E+000	-3.88000E-001	8.15923E-005	8	..........a	-327.66
	78	0.0158	-3.67953E-001	3.77514E-006	0.00000E+000	-3.68000E-001	8.15923E-005	8	..........a	-327.66
	80	0.0162	-3.47853E-001	4.18515E-006	0.00000E+000	-3.48000E-001	8.15923E-005	8	..........a	-327.66
	82	0.0166	-3.27853E-001	4.55517E-006	0.00000E+000	-3.28000E-001	8.15923E-005	8	..........a	-327.66
	84	0.017	-3.07753E-001	4.88518E-006	0.00000E+000	-3.08000E-001	8.15923E-005	8	..........a	-327.66
	86	0.0174	-2.87853E-001	5.17519E-006	0.00000E+000	-2.88000E-001	8.15923E-005	8	..........a	-327.66
	88	0.0178	-2.67753E-001	5.45520E-006	0.00000E+000	-2.68000E-001	8.15923E-005	8	..........a	-327.66
	90	0.0182	-2.47953E-001	5.68521E-006	0.00000E+000	-2.48000E-001	8.15923E-005	8	..........a	-327.66
	92	0.0186	-2.27753E-001	5.91522E-006	0.00000E+000	-2.28000E-001	8.15923E-005	8	..........a	-327.66
	94	0.019	-2.07953E-001	6.11523E-006	0.00000E+000	-2.08000E-001	-3.18408E-004	8	..........a	-327.66
	96	0.0194	-1.87803E-001	6.32523E-006	0.00000E+000	-1.88000E-001	8.15923E-005	8	..........a	-327.66
	98	0.0198	-1.67853E-001	6.55524E-006	0.00000E+000	-1.68000E-001	8.15923E-005	8	..........a	-327.66
	100	0.0202	-1.47953E-001	6.71525E-006	0.00000E+000	-1.48000E-001	8.15923E-005	8	..........a	-327.66
	102	0.0206	-1.27953E-001	6.86525E-006	0.00000E+000	-1.28000E-001	8.15923E-005	8	..........a	-327.66
	104	0.021	-1.07803E-001	7.01526E-006	0.00000E+000	-1.08000E-001	8.15923E-005	8	..........a	-327.66
	106	0.0214	-8.81529E-002	7.17527E-006	0.00000E+000	-8.80000E-002	8.15923E-005	8	..........a	-327.66
	108	0.0218	-6.77529E-002	7.35527E-006	0.00000E+000	-6.80000E-002	8.15923E-005	8	..........a	-327.66
	110	0.0222	-4.80529E-002	7.47528E-006	0.00000E+000	-4.80000E-002	8.15923E-005	8	..........a	-327.66
	112	0.0226	-2.82029E-002	7.64529E-006	0.00000E+000	-2.80000E-002	8.15923E-005	8	..........a	-327.66
	114	0.023	-7.85289E-003	7.83529E-006	0.00000E+000	-7.99999E-003	8.15923E-005	8	..........a	-327.66
	116	0.0234	1.18471E-002	7.94530E-006	0.00000E+000	1.20000E-002	8.15923E-005	8	..........a	-327.66
	118	0.0238	3.18971E-002	8.16530E-006	0.00000E+000	3.20000E-002	8.15923E-005	8	..........a	-327.66
	120	0.0242	5.20971E-002	8.31531E-006	0.00000E+000	5.20000E-002	8.15923E-005	8	..........a	-327.66
	122	0.0246	7.22471E-002	8.50532E-006	0.00000E+000	7.20000E-002	-2.18408E-004	8	..........a	-327.66
	124	0.025	9.21971E-002	8.70532E-006	0.00000E+000	9.20000E-002	8.15923E-005	8	..........a	-327.66
	126	0.0254	1.11947E-001	9.00534E-006	0.00000E+000	1.12000E-001	8.15923E-005	8	..........a	-327.66
	128	0.0258	1.32197E-001	9.22534E-006	0.00000E+000	1.32000E-001	8.15923E-005	8	..........a	-327.66
	130	0.0262	1.52097E-001	9.54536E-006	0.00000E+000	1.52000E-001	8.15923E-005	8	..........a	-327.66
	132	0.0266	1.72197E-001	1.01754E-005	0.00000E+000	1.72000E-001	8.15923E-005	8	..........a	-327.66
	134	0.027	1.92147E-001	1.04854E-005	0.00000E+000	1.92000E-001	8.15923E-005	8	..........a	-327.66
	136	0.0274	2.12047E-001	1.08454E-005	0.00000E+000	2.12000E-001	8.15923E-005	8	..........a	-327.66
	138	0.0278	2.31947E-001	1.11654E-005	0.00000E+000	2.32000E-001	8.15923E-005	8	..........a	-327.66
	140	0.0282	2.52197E-001	1.13254E-005	0.00000E+000	2.52000E-001	8.15923E-005	8	..........a	-327.66
	142	0.0286	2.72147E-001	1.16454E-005	0.00000E+000	2.72000E-001	8.15923E-005	8	..........a	-327.66
	144	0.029	2.92047E-001	1.20355E-005	0.00000E+000	2.92000E-001	8.15923E-005	8	..........a	-327.66
	146	0.0294	3.12047E-001	1.23555E-005	0.00000E+000	3.12000E-001	8.15923E-005	8	..........a	-327.66
	148	0.0298	3.32247E-001	1.27855E-005	0.00000E+000	3.32000E-001	8.15923E-005	8	..........a	-327.66
	150	0.0302	3.51697E-001	1.31755E-005	0.00000E+000	3.52000E-001	8.15923E-005	8	..........a	-327.66
	152	0.0306	3.72197E-001	1.35055E-005	0.00000E+000	3.72000E-001	8.15923E-005	8	..........a	-327.66
	154	0.031	3.91947E-001	1.38755E-005	0.00000E+000	3.92000E-001	8.15923E-005	8	..........a	-327.66
	156	0.0314	4.12047E-001	1.42455E-005	0.00000E+000	4.12000E-001	-2.18408E-004	8	..........a	-327.66
	158	0.0318	4.31947E-001	1.45956E-005	0.00000E+000	4.32000E-001	8.15923E-005	8	..........a	-327.66
	160	0.0322	4.52247E-001	1.49656E-005	0.00000E+000	4.52000E-001	8.15923E-005	8	..........a	-327.66
	162	0.0326	4.72047E-001	1.53056E-005	0.00000E+000	4.72000E-001	8.15923E-005	8	..........a	-327.66
	164	0.033	4.92097E-001	1.56656E-005	0.00000E+000	4.92000E-001	8.15923E-005	8	..........a	-327.66
	166	0.0334	5.11847E-001	1.60256E-005	0.00000E+000	5.12000E-001	8.15923E-005	8	..........a	-327.66
	168	0.0338	5.32147E-001	1.63256E-005	0.00000E+000	5.32000E-001	8.15923E-005	8	..........a	-327.66
	170	0.0342	5.51947E-001	1.65456E-005	0.00000E+000	5.52000E-001	-3.18408E-004	8	..........a	-327.66
	172	0.0346	5.72047E-001	1.68556E-005	0.00000E+000	5.72000E-001	8.15923E-005	8	..........a	-327.66
	174	0.035	5.91947E-001	1.70756E-005	0.00000E+000	5.92000E-001	8.15923E-005	8	..........a	-327.66
	176	0.0354	6.12047E-001	1.73257E-005	0.00000E+000	6.12000E-001	8.15923E-005	8	..........a	-327.66
	178	0.0358	6.31797E-001	1.75457E-005	0.00000E+000	6.32000E-001	8.15923E-005	8	..........a	-327.66
	180	0.0362	6.51847E-001	1.78257E-005	0.00000E+000	6.52000E-001	-3.18408E-004	8	..........a	-327.66
	182	0.0366	6.71947E-001	1.80657E-005	0.00000E+000	6.72000E-001	-2.18408E-004	8	..........a	-327.66
	184	0.037	6.92047E-001	1.83057E-005	0.00000E+000	6.92000E-001	8.15923E-005	8	..........a	-327.66
	186	0.0374	7.11847E-001	1.84757E-005	0.00000E+000	7.12000E-001	8.15923E-005	8	..........a	-327.66
	188	0.0378	7.31947E-001	1.86857E-005	0.00000E+000	7.32000E-001	8.15923E-005	8	..........a	-327.66
	190	0.0382	7.51847E-001	1.88457E-005	0.00000E+000	7.52000E-001	8.15923E-005	8	..........a	-327.66
	192	0.0386	7.71947E-001	1.89757E-005	0.00000E+000	7.72000E-001	8.15923E-005	8	..........a	-327.66
	194	0.039	7.91847E-001	1.90357E-005	0.00000E+000	7.92000E-001	8.15923E-005	8	..........a	-327.66
	195	0.0392	8.01847E-001	1.91157E-005	0.00000E+000	8.02000E-001	-3.18408E-004	8	..........a	-327.66
CURVE2	TABLE
	Pt	T	Vf	Im	Vu	Sig	Ach	IERange	Over	Temp
	#	s	V vs. Ref.	A	V	V	V	#	bits	deg C
	196	0.0394	7.89947E-001	1.66356E-005	0.00000E+000	7.90000E-001	8.15923E-005	8	..........a	-327.66
	199	0.04	7.59847E-001	1.20055E-005	0.00000E+000	7.60000E-001	8.15923E-005	8	..........a	-327.66
	202	0.0406	7.29847E-001	8.62532E-006	0.00000E+000	7.30000E-001	8.15923E-005	8	..........a	-327.66
	205	0.0412	7.00147E-001	5.92522E-006	0.00000E+000	7.00000E-001	8.15923E-005	8	..........a	-327.66
	208	0.0418	6.69847E-001	3.70513E-006	0.00000E+000	6.70000E-001	8.15923E-005	8	..........a	-327.66
	211	0.0424	6.40147E-001	1.90506E-006	0.00000E+000	6.40000E-001	8.15923E-005	8	..........a	-327.66
	214	0.043	6.10047E-001	3.05004E-007	0.00000E+000	6.10000E-001	8.15923E-005	8	..........a	-327.66
	217	0.0436	5.79847E-001	-1.12505E-006	0.00000E+000	5.80000E-001	8.15923E-005	8	..........a	-327.66
	220	0.0442	5.49947E-001	-2.29510E-006	0.00000E+000	5.50000E-001	8.15923E-005	8	..........a	-327.66
	223	0.0448	5.20047E-001	-3.36514E-006	0.00000E+000	5.20000E-001	8.15923E-005	8	..........a	-327.66
	226	0.0454	4.90047E-001	-4.35517E-006	0.00000E+000	4.90000E-001	8.15923E-005	8	..........a	-327.66
	229	0.046	4.59947E-001	-5.24521E-006	0.00000E+000	4.60000E-001	8.15923E-005	8	..........a	-327.66
	232	0.0466	4.29997E-001	-6.09524E-006	0.00000E+000	4.30000E-001	8.15923E-005	8	..........a	-327.66
	235	0.0472	4.00147E-001	-6.91527E-006	0.00000E+000	4.00000E-001	8.15923E-005	8	..........a	-327.66
	238	0.0478	3.70047E-001	-7.70530E-006	0.00000E+000	3.70000E-001	8.15923E-005	8	..........a	-327.66
	241	0.0484	3.40147E-001	-8.45533E-006	0.00000E+000	3.40000E-001	8.15923E-005	8	..........a	-327.66
	244	0.049	3.10047E-001	-9.20536E-006	0.00000E+000	3.10000E-001	8.15923E-005	8	..........a	-327.66
	247	0.0496	2.79947E-001	-9.92539E-006	0.00000E+000	2.80000E-001	8.15923E-005	8	..........a	-327.66
	250	0.0502	2.49947E-001	-1.07054E-005	0.00000E+000	2.50000E-001	8.15923E-005	8	..........a	-327.66
	253	0.0508	2.20147E-001	-1.13754E-005	0.00000E+000	2.20000E-001	8.15923E-005	8	..........a	-327.66
[...]
CURVE11	TABLE
	Pt	T	Vf	Im	Vu	Sig	Ach	IERange	Over	Temp
	#	s	V vs. Ref.	A	V	V	V	#	bits	deg C
	2716	0.5434	7.89947E-001	1.56656E-005	0.00000E+000	7.90000E-001	8.15923E-005	8	..........a	-327.66
	2717	0.5436	7.79947E-001	1.38455E-005	0.00000E+000	7.80000E-001	8.15923E-005	8	..........a	-327.66
	2718	0.5438	7.70047E-001	1.22655E-005	0.00000E+000	7.70000E-001	8.15923E-005	8	..........a	-327.66
	2719	0.544	7.59797E-001	1.09554E-005	0.00000E+000	7.60000E-001	8.15923E-005	8	..........a	-327.66
	2720	0.5442	7.49947E-001	9.68536E-006	0.00000E+000	7.50000E-001	8.15923E-005	8	..........a	-327.66
	2721	0.5444	7.39947E-001	8.59532E-006	0.00000E+000	7.40000E-001	8.15923E-005	8	..........a	-327.66
	2722	0.5446	7.30147E-001	7.57528E-006	0.00000E+000	7.30000E-001	8.15923E-005	8	..........a	-327.66
	2723	0.5448	7.20047E-001	6.64525E-006	0.00000E+000	7.20000E-001	8.15923E-005	8	..........a	-327.66
	2724	0.545	7.09947E-001	5.77521E-006	0.00000E+000	7.10000E-001	8.15923E-005	8	..........a	-327.66
	2725	0.5452	6.99947E-001	4.97518E-006	0.00000E+000	7.00000E-001	8.15923E-005	8	..........a	-327.66
	2726	0.5454	6.89947E-001	4.17515E-006	0.00000E+000	6.90000E-001	8.15923E-005	8	..........a	-327.66
	2727	0.5456	6.79947E-001	3.48513E-006	0.00000E+000	6.80000E-001	8.15923E-005	8	..........a	-327.66
	2728	0.5458	6.69797E-001	2.81510E-006	0.00000E+000	6.70000E-001	8.15923E-005	8	..........a	-327.66
	2729	0.546	6.59947E-001	2.18508E-006	0.00000E+000	6.60000E-001	8.15923E-005	8	..........a	-327.66
	2730	0.5462	6.49947E-001	1.60505E-006	0.00000E+000	6.50000E-001	8.15923E-005	8	..........a	-327.66
	2731	0.5464	6.39997E-001	1.08503E-006	0.00000E+000	6.40000E-001	8.15923E-005	8	..........a	-327.66
	2732	0.5466	6.30047E-001	5.25012E-007	0.00000E+000	6.30000E-001	8.15923E-005	8	..........a	-327.66
	2733	0.5468	6.19947E-001	3.49933E-008	0.00000E+000	6.20000E-001	8.15923E-005	8	..........a	-327.66
	2734	0.547	6.10047E-001	-4.55025E-007	0.00000E+000	6.10000E-001	8.15923E-005	8	..........a	-327.66
	2735	0.5472	5.99947E-001	-9.25043E-007	0.00000E+000	6.00000E-001	8.15923E-005	8	..........a	-327.66
	2736	0.5474	5.89947E-001	-1.33506E-006	0.00000E+000	5.90000E-001	8.15923E-005	8	..........a	-327.66
	2737	0.5476	5.79947E-001	-1.76508E-006	0.00000E+000	5.80000E-001	8.15923E-005	8	..........a	-327.66
	2738	0.5478	5.69947E-001	-2.09509E-006	0.00000E+000	5.70000E-001	8.15923E-005	8	..........a	-327.66
	2739	0.548	5.59797E-001	-2.48510E-006	0.00000E+000	5.60000E-001	8.15923E-005	8	..........a	-327.66
	2740	0.5482	5.49997E-001	-2.91512E-006	0.00000E+000	5.50000E-001	8.15923E-005	8	..........a	-327.66
	2741	0.5484	5.40147E-001	-3.21513E-006	0.00000E+000	5.40000E-001	8.15923E-005	8	..........a	-327.66
	2742	0.5486	5.30047E-001	-3.51514E-006	0.00000E+000	5.30000E-001	8.15923E-005	8	..........a	-327.66
	2743	0.5488	5.20047E-001	-3.84516E-006	0.00000E+000	5.20000E-001	8.15923E-005	8	..........a	-327.66
	2744	0.549	5.10047E-001	-4.19517E-006	0.00000E+000	5.10000E-001	-2.18408E-004	8	..........a	-327.66
	2745	0.5492	5.00047E-001	-4.51518E-006	0.00000E+000	5.00000E-001	8.15923E-005	8	..........a	-327.66
	2746	0.5494	4.89947E-001	-4.74519E-006	0.00000E+000	4.90000E-001	8.15923E-005	8	..........a	-327.66
	2747	0.5496	4.80147E-001	-5.03520E-006	0.00000E+000	4.80000E-001	-2.18408E-004	8	..........a	-327.66
	2748	0.5498	4.70047E-001	-5.33521E-006	0.00000E+000	4.70000E-001	8.15923E-005	8	..........a	-327.66
	2749	0.55	4.60147E-001	-5.61522E-006	0.00000E+000	4.60000E-001	8.15923E-005	8	..........a	-327.66
	2750	0.5502	4.49947E-001	-5.87523E-006	0.00000E+000	4.50000E-001	8.15923E-005	8	..........a	-327.66
	2751	0.5504	4.40047E-001	-6.16524E-006	0.00000E+000	4.40000E-001	8.15923E-005	8	..........a	-327.66
	2752	0.5506	4.29847E-001	-6.41525E-006	0.00000E+000	4.30000E-001	8.15923E-005	8	..........a	-327.66
	2753	0.5508	4.19947E-001	-6.67526E-006	0.00000E+000	4.20000E-001	8.15923E-005	8	..........a	-327.66
	2754	0.551	4.09947E-001	-6.91527E-006	0.00000E+000	4.10000E-001	8.15923E-005	8	..........a	-327.66
	2755	0.5512	3.99947E-001	-7.19528E-006	0.00000E+000	4.00000E-001	8.15923E-005	8	..........a	-327.66
	2756	0.5514	3.89847E-001	-7.44529E-006	0.00000E+000	3.90000E-001	8.15923E-005	8	..........a	-327.66
	2757	0.5516	3.80247E-001	-7.68530E-006	0.00000E+000	3.80000E-001	8.15923E-005	8	..........a	-327.66
	2758	0.5518	3.70047E-001	-7.97531E-006	0.00000E+000	3.70000E-001	8.15923E-005	8	..........a	-327.66
	2759	0.552	3.60147E-001	-8.16532E-006	0.00000E+000	3.60000E-001	8.15923E-005	8	..........a	-327.66
	2760	0.5522	3.49947E-001	-8.43533E-006	0.00000E+000	3.50000E-001	8.15923E-005	8	..........a	-327.66
	2761	0.5524	3.40147E-001	-8.60534E-006	0.00000E+000	3.40000E-001	8.15923E-005	8	..........a	-327.66
	2762	0.5526	3.29947E-001	-8.91535E-006	0.00000E+000	3.30000E-001	8.15923E-005	8	..........a	-327.66
	2763	0.5528	3.20047E-001	-9.16536E-006	0.00000E+000	3.20000E-001	8.15923E-005	8	..........a	-327.66
	2764	0.553	3.10047E-001	-9.40537E-006	0.00000E+000	3.10000E-001	8.15923E-005	8	..........a	-327.66
	2765	0.5532	3.00147E-001	-9.65538E-006	0.00000E+000	3.00000E-001	8.15923E-005	8	..........a	-327.66
	2766	0.5534	2.90047E-001	-9.88539E-006	0.00000E+000	2.90000E-001	-3.18408E-004	8	..........a	-327.66
	2767	0.5536	2.80047E-001	-1.01454E-005	0.00000E+000	2.80000E-001	8.15923E-005	8	..........a	-327.66
	2768	0.5538	2.70047E-001	-1.03354E-005	0.00000E+000	2.70000E-001	8.15923E-005	8	..........a	-327.66
	2769	0.554	2.60047E-001	-1.05954E-005	0.00000E+000	2.60000E-001	8.15923E-005	8	..........a	-327.66
	2770	0.5542	2.50147E-001	-1.08554E-005	0.00000E+000	2.50000E-001	8.15923E-005	8	..........a	-327.66
	2771	0.5544	2.40147E-001	-1.10754E-005	0.00000E+000	2.40000E-001	8.15923E-005	8	..........a	-327.66
	2772	0.5546	2.29947E-001	-1.12854E-005	0.00000E+000	2.30000E-001	8.15923E-005	8	..........a	-327.66
	2773	0.5548	2.20247E-001	-1.14854E-005	0.00000E+000	2.20000E-001	8.15923E-005	8	..........a	-327.66
	2774	0.555	2.09947E-001	-1.16555E-005	0.00000E+000	2.10000E-001	8.15923E-005	8	..........a	-327.66
	2775	0.5552	2.00147E-001	-1.18955E-005	0.00000E+000	2.00000E-001	8.15923E-005	8	..........a	-327.66
	2776	0.5554	1.90047E-001	-1.21155E-005	0.00000E+000	1.90000E-001	8.15923E-005	8	..........a	-327.66
	2777	0.5556	1.79947E-001	-1.23155E-005	0.00000E+000	1.80000E-001	-3.18408E-004	8	..........a	-327.66
	2778	0.5558	1.69997E-001	-1.24355E-005	0.00000E+000	1.70000E-001	8.15923E-005	8	..........a	-327.66
	2779	0.556	1.60047E-001	-1.26055E-005	0.00000E+000	1.60000E-001	8.15923E-005	8	..........a	-327.66
	2780	0.5562	1.50147E-001	-1.27655E-005	0.00000E+000	1.50000E-001	8.15923E-005	8	..........a	-327.66
	2781	0.5564	1.40147E-001	-1.29155E-005	0.00000E+000	1.40000E-001	8.15923E-005	8	..........a	-327.66
	2782	0.5566	1.30147E-001	-1.31755E-005	0.00000E+000	1.30000E-001	8.15923E-005	8	..........a	-327.66
	2783	0.5568	1.20147E-001	-1.32755E-005	0.00000E+000	1.20000E-001	8.15923E-005	8	..........a	-327.66
	2784	0.557	1.10147E-001	-1.33955E-005	0.00000E+000	1.10000E-001	8.15923E-005	8	..........a	-327.66
	2785	0.5572	1.00047E-001	-1.35955E-005	0.00000E+000	1.00000E-001	8.15923E-005	8	..........a	-327.66
	2786	0.5574	9.00471E-002	-1.36755E-005	0.00000E+000	9.00000E-002	8.15923E-005	8	..........a	-327.66
	2787	0.5576	8.01471E-002	-1.37755E-005	0.00000E+000	8.00000E-002	8.15923E-005	8	..........a	-327.66
	2788	0.5578	7.00471E-002	-1.39355E-005	0.00000E+000	7.00000E-002	8.15923E-005	8	..........a	-327.66
	2789	0.558	6.01471E-002	-1.40755E-005	0.00000E+000	6.00000E-002	-2.18408E-004	8	..........a	-327.66
	2790	0.5582	5.00471E-002	-1.42156E-005	0.00000E+000	5.00000E-002	8.15923E-005	8	..........a	-327.66
	2791	0.5584	4.00471E-002	-1.43756E-005	0.00000E+000	4.00000E-002	8.15923E-005	8	..........a	-327.66
	2792	0.5586	3.01471E-002	-1.44556E-005	0.00000E+000	3.00000E-002	8.15923E-005	8	..........a	-327.66
	2793	0.5588	2.01471E-002	-1.45956E-005	0.00000E+000	2.00000E-002	8.15923E-005	8	..........a	-327.66
	2794	0.559	1.00471E-002	-1.47656E-005	0.00000E+000	1.00000E-002	8.15923E-005	8	..........a	-327.66
	2795	0.5592	1.47114E-004	-1.50056E-005	0.00000E+000	7.45058E-009	8.15923E-005	8	..........a	-327.66
	2796	0.5594	-9.95289E-003	-1.52656E-005	0.00000E+000	-1.00000E-002	8.15923E-005	8	..........a	-327.66
	2797	0.5596	-1.97529E-002	-1.55256E-005	0.00000E+000	-2.00000E-002	8.15923E-005	8	..........a	-327.66
	2798	0.5598	-2.99529E-002	-1.58556E-005	0.00000E+000	-3.00000E-002	8.15923E-005	8	..........a	-327.66
	2799	0.56	-3.99529E-002	-1.61256E-005	0.00000E+000	-4.00000E-002	8.15923E-005	8	..........a	-327.66
	2800	0.5602	-4.99529E-002	-1.63256E-005	0.00000E+000	-5.00000E-002	8.15923E-005	8	..........a	-327.66