File: data/raw/batch_data/20240424_G_GM0016_HL03_E02_CV50.DTA
EXPLAIN
TAG	CV
TITLE	LABEL	Cyclic Voltammetry	Test &Identifier
DATE	LABEL	4/24/2024	Date
TIME	LABEL	17:03:10	Time
NOTES	NOTES	1	&Notes...

PSTAT	PSTAT	REF600P-43058	Potentiostat
VINIT	POTEN	0.00000E+000	T	Initial &E (V)
VLIMIT1	POTEN	-6.00000E-001	F	Scan Limit &1 (V)
VLIMIT2	POTEN	8.00000E-001	F	Scan Limit &2 (V)
VFINAL	POTEN	0.00000E+000	T	Final &E (V)
SCANRATE	QUANT	4.99999E+001	&Scan Rate (mV/s)
STEPSIZE	QUANT	1.00000E+001	St&ep Size (mV)
CYCLES	IQUANT	4	C&ycles (#)
IMODE	SELECTOR	0	I/E Range &Mode
IRANGE	QUANT	1.00000E-005	&Max Current (mA)
AREA	QUANT	1.00000E+000	Electrode &Area (cm^2)
ELECTRODETYPE	SELECTOR	0	Electrode Type
STRIPPING	TOGGLE	F	Used for Stripping
POLARITY	TOGGLE	F	Signal Polarity
CONDIT	TWOPARAM	F	1.50000E+001	0.00000E+000	Conditionin&g	Time(s)	E(V)
DELAY	TWOPARAM	T	1.00000E+001	0.00000E+000	Init. De&lay	Time(s)	Stab.(mV/s)
EQDELAY	QUANT	1.00000E+001	Equil. &Time (s)
IRCOMP	SELECTOR	0	IRCom&p
PFCOR	QUANT	5.00000E+001	PF Corr. (ohm)
SAMPLINGMODE	SELECTOR	1	Sampling &Mode
OCVCURVE	TABLE	39
	Pt	T	Vf	Vm	Ach	Over	Temp
	#	s	V vs. Ref.	V	V	bits	deg C
	0	0.258333	-1.48000E-001	-1.48000E-001	2.32726E-004	..........a	-327.66
	1	0.516667	-1.47985E-001	-1.47233E-001	2.37926E-004	..........a	-327.66
	2	0.775	-1.47896E-001	-1.46517E-001	2.39926E-004	..........a	-327.66
	3	1.03333	-1.47643E-001	-1.45845E-001	2.29526E-004	..........a	-327.66
	4	1.29167	-1.47193E-001	-1.45220E-001	2.39992E-004	..........a	-327.66
	5	1.55	-1.46601E-001	-1.44631E-001	2.24526E-004	..........a	-327.66
	6	1.80833	-1.45955E-001	-1.44086E-001	2.32192E-004	..........a	-327.66
	7	2.06667	-1.45316E-001	-1.43579E-001	2.40459E-004	..........a	-327.66
	8	2.325	-1.44715E-001	-1.43104E-001	2.37059E-004	..........a	-327.66
	9	2.58333	-1.44159E-001	-1.42671E-001	2.43592E-004	..........a	-327.66
	10	2.84167	-1.43644E-001	-1.42257E-001	2.37059E-004	..........a	-327.66
	11	3.1	-1.43167E-001	-1.41880E-001	2.32659E-004	..........a	-327.66
	12	3.35833	-1.42724E-001	-1.41534E-001	2.49992E-004	..........a	-327.66
	13	3.61667	-1.42313E-001	-1.41210E-001	2.25859E-004	..........a	-327.66
	14	3.875	-1.41932E-001	-1.40903E-001	2.33326E-004	..........a	-327.66
	15	4.13333	-1.41578E-001	-1.40620E-001	2.23659E-004	..........a	-327.66
	16	4.39167	-1.41249E-001	-1.40356E-001	2.26659E-004	..........a	-327.66
	17	4.65	-1.40943E-001	-1.40125E-001	2.27526E-004	..........a	-327.66
	18	4.90833	-1.40658E-001	-1.39907E-001	2.23059E-004	..........a	-327.66
	19	5.16667	-1.40396E-001	-1.39709E-001	2.35659E-004	..........a	-327.66
	20	5.425	-1.40157E-001	-1.39536E-001	2.44259E-004	..........a	-327.66
	21	5.68333	-1.39938E-001	-1.39367E-001	2.29859E-004	..........a	-327.66
	22	5.94167	-1.39739E-001	-1.39215E-001	2.31192E-004	..........a	-327.66
	23	6.2	-1.39557E-001	-1.39073E-001	2.34126E-004	..........a	-327.66
	24	6.45833	-1.39390E-001	-1.38965E-001	2.29792E-004	..........a	-327.66
	25	6.71667	-1.39238E-001	-1.38860E-001	2.29526E-004	..........a	-327.66
	26	6.975	-1.39102E-001	-1.38756E-001	2.33659E-004	..........a	-327.66
	27	7.23333	-1.38981E-001	-1.38676E-001	2.40259E-004	..........a	-327.66
	28	7.49167	-1.38872E-001	-1.38599E-001	2.34326E-004	..........a	-327.66
	29	7.75	-1.38775E-001	-1.38548E-001	2.27392E-004	..........a	-327.66
	30	8.00833	-1.38691E-001	-1.38496E-001	2.35726E-004	..........a	-327.66
	31	8.26667	-1.38618E-001	-1.38448E-001	2.22526E-004	..........a	-327.66
	32	8.525	-1.38556E-001	-1.38422E-001	2.40192E-004	..........a	-327.66
	33	8.78333	-1.38505E-001	-1.38406E-001	2.38726E-004	..........a	-327.66
	34	9.04167	-1.38463E-001	-1.38394E-001	2.39659E-004	..........a	-327.66
	35	9.3	-1.38432E-001	-1.38385E-001	2.41726E-004	..........a	-327.66
	36	9.5583	-1.38411E-001	-1.38378E-001	2.31592E-004	..........a	-327.66
	37	9.8167	-1.38397E-001	-1.38396E-001	2.33992E-004	..........a	-327.66
	38	10.075	-1.38390E-001	-1.38410E-001	2.34659E-004	..........a	-327.66
EOC	QUANT	-0.1383899	Open Circuit (V)
PSTATMODEL	IQUANT	7	Pstat Model
PSTATSECTION	LABEL	REF600P-43058	Pstat Section
PSTATSERIALNO	LABEL	43058	Pstat Serial Number
CTRLMODE	IQUANT	1	Control Mode
ELECTROMETER	IQUANT	0	RE=0 or CS=1
IESTAB	IQUANT	2	I/E Stability
CASPEED	IQUANT	4	Control Amp Speed
CONVENTION	IQUANT	1	Current Convention
ICHRANGE	IQUANT	2	Ich Range
ICHRANGEMODE	TOGGLE	F	Ich Auto Range
ICHOFFSETENABLE	TOGGLE	F	Ich Offset Enable
ICHOFFSET	QUANT	0	Ich Offset (V)
ICHFILTER	IQUANT	2	Ich Filter
VCHRANGE	IQUANT	2	Vch Range
VCHRANGEMODE	TOGGLE	F	Vch Auto Range
VCHOFFSETENABLE	TOGGLE	F	Vch Offset Enable
VCHOFFSET	QUANT	0	Vch Offset (V)
VCHFILTER	IQUANT	2	Vch Filter
ACHRANGE	IQUANT	2	Ach Range
ACHOFFSETENABLE	TOGGLE	F	Ach Offset Enable
ACHOFFSET	QUANT	0	Ach Offset (V)
ACHFILTER	IQUANT	1	Ach Filter
IERANGELOWERLIMIT	IQUANT	1	I/E Range Lower Limit
IERANGEMODE	TOGGLE	T	I/E AutoRange
IERANGE	IQUANT	4	I/E Range
POSFEEDENABLE	TOGGLE	F	Positive Feedback IR Comp
POSFEEDRESISTANCE	QUANT	0	Positive Feedback Resistance (ohm)
ACHSELECT	IQUANT	4	Ach Select
SENSECABLEID	IQUANT	7	Sense Cable ID
PWRCABLEID	IQUANT	7	Power Cable ID
DCCALDATE	LABEL	3/22/2024	DC Calibration Date
ACCALDATE	LABEL	3/22/2024	AC Calibration Date
THERMOSELECT	IQUANT	1	Thermo Select
FRAMEWORKVERSION	LABEL	7.8.4	Framework Version
INSTRUMENTVERSION	LABEL	4.42	Instrument Version
CURVE1	TABLE
	Pt	T	Vf	Im	Vu	Sig	Ach	IERange	Over	Temp
	#	s	V vs. Ref.	A	V	V	V	#	bits	deg C
	0	0.2	-1.38366E-001	8.10237E-010	0.00000E+000	-1.38400E-001	9.64192E-004	5	..........a	-327.66
	2	0.6	-1.58344E-001	-3.88116E-009	0.00000E+000	-1.58400E-001	9.76392E-004	5	..........a	-327.66
	4	1	-1.78349E-001	-6.94972E-009	0.00000E+000	-1.78400E-001	9.55292E-004	5	..........a	-327.66
	6	1.4	-1.98319E-001	-9.56095E-009	0.00000E+000	-1.98400E-001	9.78992E-004	5	..........a	-327.66
	8	1.8	-2.18289E-001	-1.19608E-008	0.00000E+000	-2.18400E-001	9.66092E-004	5	..........a	-327.66
	10	2.2	-2.38303E-001	-1.42476E-008	0.00000E+000	-2.38400E-001	9.98492E-004	5	..........a	-327.66
	12	2.6	-2.58253E-001	-1.64414E-008	0.00000E+000	-2.58400E-001	9.84692E-004	5	..........a	-327.66
	14	3	-2.78288E-001	-1.86105E-008	0.00000E+000	-2.78400E-001	9.91992E-004	5	..........a	-327.66
	16	3.4	-2.98265E-001	-2.08046E-008	0.00000E+000	-2.98400E-001	9.65192E-004	5	..........a	-327.66
	18	3.8	-3.18267E-001	-2.29350E-008	0.00000E+000	-3.18400E-001	9.65492E-004	5	..........a	-327.66
	20	4.2	-3.38246E-001	-2.51395E-008	0.00000E+000	-3.38400E-001	9.68992E-004	5	..........a	-327.66
	22	4.6	-3.58345E-001	-2.73822E-008	0.00000E+000	-3.58400E-001	9.93692E-004	5	..........a	-327.66
	24	5	-3.78257E-001	-2.96820E-008	0.00000E+000	-3.78400E-001	9.90692E-004	5	..........a	-327.66
	26	5.4	-3.98280E-001	-3.20673E-008	0.00000E+000	-3.98400E-001	9.69592E-004	5	..........a	-327.66
	28	5.8	-4.18211E-001	-3.44765E-008	0.00000E+000	-4.18400E-001	9.58292E-004	5	..........a	-327.66
	30	6.2	-4.38269E-001	-3.69093E-008	0.00000E+000	-4.38400E-001	9.92192E-004	5	..........a	-327.66
	32	6.6	-4.58215E-001	-3.93328E-008	0.00000E+000	-4.58400E-001	9.79192E-004	5	..........a	-327.66
	34	7	-4.78247E-001	-4.17989E-008	0.00000E+000	-4.78400E-001	9.85992E-004	5	..........a	-327.66
	36	7.4	-4.98175E-001	-4.42208E-008	0.00000E+000	-4.98400E-001	9.92992E-004	5	..........a	-327.66
	38	7.8	-5.18258E-001	-4.66505E-008	0.00000E+000	-5.18400E-001	9.77692E-004	5	..........a	-327.66
	40	8.2	-5.38214E-001	-4.91586E-008	0.00000E+000	-5.38400E-001	9.66592E-004	5	..........a	-327.66
	42	8.6	-5.58274E-001	-5.17778E-008	0.00000E+000	-5.58400E-001	9.84892E-004	5	..........a	-327.66
	44	9	-5.78235E-001	-5.45480E-008	0.00000E+000	-5.78400E-001	9.83892E-004	5	..........a	-327.66
	46	9.4	-5.98259E-001	-5.75506E-008	0.00000E+000	-5.98400E-001	9.93492E-004	5	..........a	-327.66
	48	9.8	-5.78241E-001	-4.19353E-008	0.00000E+000	-5.78400E-001	9.70592E-004	5	..........a	-327.66
	50	10.2	-5.58265E-001	-3.39717E-008	0.00000E+000	-5.58400E-001	9.70292E-004	5	..........a	-327.66
	52	10.6	-5.38234E-001	-2.83631E-008	0.00000E+000	-5.38400E-001	9.78392E-004	5	..........a	-327.66
	54	11	-5.18263E-001	-2.40080E-008	0.00000E+000	-5.18400E-001	9.72992E-004	5	..........a	-327.66
	56	11.4	-4.98199E-001	-2.03173E-008	0.00000E+000	-4.98400E-001	9.86792E-004	5	..........a	-327.66
	58	11.8	-4.78268E-001	-1.71658E-008	0.00000E+000	-4.78400E-001	9.90792E-004	5	..........a	-327.66
	60	12.2	-4.58224E-001	-1.43453E-008	0.00000E+000	-4.58400E-001	9.63492E-004	5	..........a	-327.66
	62	12.6	-4.38247E-001	-1.17702E-008	0.00000E+000	-4.38400E-001	9.91692E-004	5	..........a	-327.66
	64	13	-4.18224E-001	-9.37404E-009	0.00000E+000	-4.18400E-001	9.59492E-004	5	..........a	-327.66
	66	13.4	-3.98281E-001	-7.14697E-009	0.00000E+000	-3.98400E-001	9.67792E-004	5	..........a	-327.66
	68	13.8	-3.78270E-001	-5.02461E-009	0.00000E+000	-3.78400E-001	9.80292E-004	5	..........a	-327.66
	70	14.2	-3.58258E-001	-2.98569E-009	0.00000E+000	-3.58400E-001	9.76792E-004	5	..........a	-327.66
	72	14.6	-3.38276E-001	-1.07722E-009	0.00000E+000	-3.38400E-001	9.66092E-004	5	..........a	-327.66
	74	15	-3.18395E-001	7.99996E-010	0.00000E+000	-3.18400E-001	9.70492E-004	5	..........a	-327.66
	76	15.4	-2.98317E-001	2.62222E-009	0.00000E+000	-2.98400E-001	9.85392E-004	5	..........a	-327.66
	78	15.8	-2.78358E-001	4.42629E-009	0.00000E+000	-2.78400E-001	9.85592E-004	5	..........a	-327.66
	80	16.2	-2.58267E-001	6.17945E-009	0.00000E+000	-2.58400E-001	9.72592E-004	5	..........a	-327.66
	82	16.6	-2.38417E-001	7.90636E-009	0.00000E+000	-2.38400E-001	9.79592E-004	5	..........a	-327.66
	84	17	-2.18294E-001	9.65720E-009	0.00000E+000	-2.18400E-001	9.69392E-004	5	..........a	-327.66
	86	17.4	-1.98388E-001	1.13552E-008	0.00000E+000	-1.98400E-001	9.98792E-004	5	..........a	-327.66
	88	17.8	-1.78413E-001	1.30250E-008	0.00000E+000	-1.78400E-001	9.69192E-004	5	..........a	-327.66
	90	18.2	-1.58371E-001	1.47537E-008	0.00000E+000	-1.58400E-001	9.89292E-004	5	..........a	-327.66
	92	18.6	-1.38358E-001	1.64590E-008	0.00000E+000	-1.38400E-001	9.76692E-004	5	..........a	-327.66
	94	19	-1.18379E-001	1.81984E-008	0.00000E+000	-1.18400E-001	9.91492E-004	5	..........a	-327.66
	96	19.4	-9.83303E-002	2.00078E-008	0.00000E+000	-9.84000E-002	9.74192E-004	5	..........a	-327.66
	98	19.8	-7.84068E-002	2.18308E-008	0.00000E+000	-7.84000E-002	9.77892E-004	5	..........a	-327.66
	100	20.2	-5.83201E-002	2.36941E-008	0.00000E+000	-5.84000E-002	9.77192E-004	5	..........a	-327.66
	102	20.6	-3.83485E-002	2.56280E-008	0.00000E+000	-3.84000E-002	9.84292E-004	5	..........a	-327.66
	104	21	-1.83284E-002	2.76175E-008	0.00000E+000	-1.84000E-002	9.49992E-004	5	..........a	-327.66
	106	21.4	1.64419E-003	2.96324E-008	0.00000E+000	1.60000E-003	9.74892E-004	5	..........a	-327.66
	108	21.8	2.17207E-002	3.17572E-008	0.00000E+000	2.16000E-002	9.79392E-004	5	..........a	-327.66
	110	22.2	4.15763E-002	3.39276E-008	0.00000E+000	4.16000E-002	9.92192E-004	5	..........a	-327.66
	112	22.6	6.16716E-002	3.61980E-008	0.00000E+000	6.16000E-002	9.87292E-004	5	..........a	-327.66
	114	23	8.15669E-002	3.85223E-008	0.00000E+000	8.16000E-002	9.77192E-004	5	..........a	-327.66
	116	23.4	1.01668E-001	4.09292E-008	0.00000E+000	1.01600E-001	9.67992E-004	5	..........a	-327.66
	118	23.8	1.21560E-001	4.34635E-008	0.00000E+000	1.21600E-001	9.87592E-004	5	..........a	-327.66
	120	24.2	1.41752E-001	4.60598E-008	0.00000E+000	1.41600E-001	9.84292E-004	5	..........a	-327.66
	122	24.6	1.61608E-001	4.86299E-008	0.00000E+000	1.61600E-001	9.85192E-004	5	..........a	-327.66
	124	25	1.81665E-001	5.12715E-008	0.00000E+000	1.81600E-001	9.62192E-004	5	..........a	-327.66
	126	25.4	2.01559E-001	5.39863E-008	0.00000E+000	2.01600E-001	9.85692E-004	5	..........a	-327.66
	128	25.8	2.21643E-001	5.65596E-008	0.00000E+000	2.21600E-001	9.78892E-004	5	..........a	-327.66
	130	26.2	2.41585E-001	5.89280E-008	0.00000E+000	2.41600E-001	9.88992E-004	5	..........a	-327.66
	132	26.6	2.61599E-001	6.11399E-008	0.00000E+000	2.61600E-001	9.88992E-004	5	..........a	-327.66
	134	27	2.81544E-001	6.34416E-008	0.00000E+000	2.81600E-001	9.79992E-004	5	..........a	-327.66
	136	27.4	3.01614E-001	6.58608E-008	0.00000E+000	3.01600E-001	9.75092E-004	5	..........a	-327.66
	138	27.8	3.21547E-001	6.83242E-008	0.00000E+000	3.21600E-001	9.86792E-004	5	..........a	-327.66
	140	28.2	3.41624E-001	7.09773E-008	0.00000E+000	3.41600E-001	9.79292E-004	5	..........a	-327.66
	142	28.6	3.61574E-001	7.38200E-008	0.00000E+000	3.61600E-001	9.97192E-004	5	..........a	-327.66
	144	29	3.81593E-001	7.68063E-008	0.00000E+000	3.81600E-001	9.77692E-004	5	..........a	-327.66
	146	29.4	4.01524E-001	7.99415E-008	0.00000E+000	4.01600E-001	9.92492E-004	5	..........a	-327.66
	148	29.8	4.21579E-001	8.33588E-008	0.00000E+000	4.21600E-001	9.79392E-004	5	..........a	-327.66
	150	30.2	4.41542E-001	8.68863E-008	0.00000E+000	4.41600E-001	9.72192E-004	5	..........a	-327.66
	152	30.6	4.61520E-001	9.05851E-008	0.00000E+000	4.61600E-001	9.90792E-004	5	..........a	-327.66
	154	31	4.81535E-001	9.43798E-008	0.00000E+000	4.81600E-001	9.88092E-004	5	..........a	-327.66
	156	31.4	5.01418E-001	9.83084E-008	0.00000E+000	5.01600E-001	9.66492E-004	5	..........a	-327.66
	158	31.8	5.21543E-001	1.02285E-007	0.00000E+000	5.21600E-001	9.80392E-004	5	..........a	-327.66
	160	32.2	5.41550E-001	1.06418E-007	0.00000E+000	5.41600E-001	9.85192E-004	5	..........a	-327.66
	162	32.6	5.61505E-001	1.10551E-007	0.00000E+000	5.61600E-001	9.83592E-004	5	..........a	-327.66
	164	33	5.81543E-001	1.14808E-007	0.00000E+000	5.81600E-001	9.76492E-004	5	..........a	-327.66
	166	33.4	6.01531E-001	1.19166E-007	0.00000E+000	6.01600E-001	9.97992E-004	5	..........a	-327.66
	168	33.8	6.21509E-001	1.23676E-007	0.00000E+000	6.21600E-001	9.86392E-004	5	..........a	-327.66
	170	34.2	6.41503E-001	1.28377E-007	0.00000E+000	6.41600E-001	9.87592E-004	5	..........a	-327.66
	172	34.6	6.61501E-001	1.33300E-007	0.00000E+000	6.61600E-001	9.76192E-004	5	..........a	-327.66
	174	35	6.81483E-001	1.38530E-007	0.00000E+000	6.81600E-001	9.71492E-004	5	..........a	-327.66
	176	35.4	7.01466E-001	1.44156E-007	0.00000E+000	7.01600E-001	9.68492E-004	5	..........a	-327.66
	178	35.8	7.21480E-001	1.50355E-007	0.00000E+000	7.21600E-001	9.90792E-004	5	..........a	-327.66
	180	36.2	7.41480E-001	1.57349E-007	0.00000E+000	7.41600E-001	9.89992E-004	5	..........a	-327.66
	182	36.6	7.61469E-001	1.65575E-007	0.00000E+000	7.61600E-001	9.95492E-004	5	..........a	-327.66
	184	37	7.81477E-001	1.75311E-007	0.00000E+000	7.81600E-001	9.74492E-004	5	..........a	-327.66
	186	37.4	8.01457E-001	1.86851E-007	0.00000E+000	8.01600E-001	9.92492E-004	5	..........a	-327.66
CURVE2	TABLE
	Pt	T	Vf	Im	Vu	Sig	Ach	IERange	Over	Temp
	#	s	V vs. Ref.	A	V	V	V	#	bits	deg C
	187	37.6	7.89964E-001	1.52933E-007	0.00000E+000	7.90000E-001	9.84392E-004	5	..........a	-327.66
	190	38.2	7.59922E-001	1.09383E-007	0.00000E+000	7.60000E-001	9.86592E-004	5	..........a	-327.66
	193	38.8	7.29934E-001	8.84322E-008	0.00000E+000	7.30000E-001	9.94692E-004	5	..........a	-327.66
	196	39.4	6.99911E-001	7.52417E-008	0.00000E+000	7.00000E-001	9.88792E-004	5	..........a	-327.66
	199	40	6.69973E-001	6.54510E-008	0.00000E+000	6.70000E-001	9.82692E-004	5	..........a	-327.66
	202	40.6	6.39883E-001	5.74193E-008	0.00000E+000	6.40000E-001	9.77592E-004	5	..........a	-327.66
	205	41.2	6.09950E-001	5.04382E-008	0.00000E+000	6.10000E-001	9.84592E-004	5	..........a	-327.66
	208	41.8	5.79972E-001	4.43298E-008	0.00000E+000	5.80000E-001	9.83192E-004	5	..........a	-327.66
	211	42.4	5.50032E-001	3.90310E-008	0.00000E+000	5.50000E-001	9.89892E-004	5	..........a	-327.66
	214	43	5.19965E-001	3.41338E-008	0.00000E+000	5.20000E-001	1.00439E-003	5	..........a	-327.66
	217	43.6	4.89966E-001	2.97541E-008	0.00000E+000	4.90000E-001	9.94192E-004	5	..........a	-327.66
	220	44.2	4.59990E-001	2.55546E-008	0.00000E+000	4.60000E-001	9.89492E-004	5	..........a	-327.66
	223	44.8	4.29997E-001	2.10208E-008	0.00000E+000	4.30000E-001	9.73192E-004	5	..........a	-327.66
	226	45.4	4.00005E-001	1.63161E-008	0.00000E+000	4.00000E-001	9.74692E-004	5	..........a	-327.66
	229	46	3.70042E-001	1.15167E-008	0.00000E+000	3.70000E-001	9.86792E-004	5	..........a	-327.66
	232	46.6	3.40071E-001	6.67093E-009	0.00000E+000	3.40000E-001	9.77092E-004	5	..........a	-327.66
	235	47.2	3.10004E-001	1.77331E-009	0.00000E+000	3.10000E-001	9.82892E-004	5	..........a	-327.66
	238	47.8	2.80024E-001	-3.41931E-009	0.00000E+000	2.80000E-001	9.87992E-004	5	..........a	-327.66
	241	48.4	2.50054E-001	-8.85467E-009	0.00000E+000	2.50000E-001	9.76092E-004	5	..........a	-327.66
	244	49	2.20012E-001	-1.43959E-008	0.00000E+000	2.20000E-001	9.65692E-004	5	..........a	-327.66
	247	49.6	1.90124E-001	-1.92540E-008	0.00000E+000	1.90000E-001	9.65792E-004	5	..........a	-327.66
	250	50.2	1.60045E-001	-2.22477E-008	0.00000E+000	1.60000E-001	9.77492E-004	5	..........a	-327.66
	253	50.8	1.30066E-001	-2.28032E-008	0.00000E+000	1.30000E-001	9.91492E-004	5	..........a	-327.66
	256	51.4	1.00117E-001	-2.15436E-008	0.00000E+000	1.00000E-001	9.54792E-004	5	..........a	-327.66
	259	52	7.00533E-002	-1.98402E-008	0.00000E+000	7.00000E-002	9.86692E-004	5	..........a	-327.66
	262	52.6	4.00236E-002	-1.90040E-008	0.00000E+000	4.00000E-002	9.80492E-004	5	..........a	-327.66
	265	53.2	1.01151E-002	-1.91730E-008	0.00000E+000	1.00000E-002	9.80292E-004	5	..........a	-327.66
	268	53.8	-1.98999E-002	-2.01687E-008	0.00000E+000	-2.00000E-002	9.68892E-004	5	..........a	-327.66
[...]
	1034	207	7.19921E-001	7.76350E-008	0.00000E+000	7.20000E-001	9.72692E-004	5	..........a	-327.66
	1035	207.2	7.09991E-001	7.36224E-008	0.00000E+000	7.10000E-001	9.97792E-004	5	..........a	-327.66
	1036	207.4	6.99899E-001	7.00037E-008	0.00000E+000	7.00000E-001	9.71292E-004	5	..........a	-327.66
	1037	207.6	6.89913E-001	6.66938E-008	0.00000E+000	6.90000E-001	9.92292E-004	5	..........a	-327.66
	1038	207.8	6.79935E-001	6.36271E-008	0.00000E+000	6.80000E-001	9.73692E-004	5	..........a	-327.66
	1039	208	6.69974E-001	6.07736E-008	0.00000E+000	6.70000E-001	9.71092E-004	5	..........a	-327.66
	1040	208.2	6.59954E-001	5.80888E-008	0.00000E+000	6.60000E-001	9.63092E-004	5	..........a	-327.66
	1041	208.4	6.49945E-001	5.55319E-008	0.00000E+000	6.50000E-001	9.79292E-004	5	..........a	-327.66
	1042	208.6	6.39897E-001	5.30963E-008	0.00000E+000	6.40000E-001	1.01729E-003	5	..........a	-327.66
	1043	208.8	6.30035E-001	5.07469E-008	0.00000E+000	6.30000E-001	9.70592E-004	5	..........a	-327.66
	1044	209	6.19924E-001	4.85000E-008	0.00000E+000	6.20000E-001	9.96892E-004	5	..........a	-327.66
	1045	209.2	6.09962E-001	4.63455E-008	0.00000E+000	6.10000E-001	9.84092E-004	5	..........a	-327.66
	1046	209.4	5.99952E-001	4.42828E-008	0.00000E+000	6.00000E-001	9.79292E-004	5	..........a	-327.66
	1047	209.6	5.90019E-001	4.23506E-008	0.00000E+000	5.90000E-001	9.81492E-004	5	..........a	-327.66
	1048	209.8	5.79979E-001	4.05201E-008	0.00000E+000	5.80000E-001	9.76992E-004	5	..........a	-327.66
	1049	210	5.69941E-001	3.88316E-008	0.00000E+000	5.70000E-001	9.93292E-004	5	..........a	-327.66
	1050	210.2	5.59953E-001	3.72227E-008	0.00000E+000	5.60000E-001	9.82592E-004	5	..........a	-327.66
	1051	210.4	5.50022E-001	3.56050E-008	0.00000E+000	5.50000E-001	9.94892E-004	5	..........a	-327.66
	1052	210.6	5.39980E-001	3.39771E-008	0.00000E+000	5.40000E-001	9.71192E-004	5	..........a	-327.66
	1053	210.8	5.29986E-001	3.23729E-008	0.00000E+000	5.30000E-001	9.73192E-004	5	..........a	-327.66
	1054	211	5.19981E-001	3.08380E-008	0.00000E+000	5.20000E-001	9.78692E-004	5	..........a	-327.66
	1055	211.2	5.09992E-001	2.93721E-008	0.00000E+000	5.10000E-001	9.97892E-004	5	..........a	-327.66
	1056	211.4	5.00025E-001	2.79870E-008	0.00000E+000	5.00000E-001	9.76192E-004	5	..........a	-327.66
	1057	211.6	4.89975E-001	2.67264E-008	0.00000E+000	4.90000E-001	9.95892E-004	5	..........a	-327.66
	1058	211.8	4.79928E-001	2.54321E-008	0.00000E+000	4.80000E-001	9.81592E-004	5	..........a	-327.66
	1059	212	4.70020E-001	2.41121E-008	0.00000E+000	4.70000E-001	9.75192E-004	5	..........a	-327.66
	1060	212.2	4.59983E-001	2.26992E-008	0.00000E+000	4.60000E-001	9.61092E-004	5	..........a	-327.66
	1061	212.4	4.49799E-001	2.12196E-008	0.00000E+000	4.50000E-001	9.89292E-004	5	..........a	-327.66
	1062	212.6	4.39959E-001	1.97442E-008	0.00000E+000	4.40000E-001	9.99592E-004	5	..........a	-327.66
	1063	212.8	4.29993E-001	1.82271E-008	0.00000E+000	4.30000E-001	9.88192E-004	5	..........a	-327.66
	1064	213	4.20016E-001	1.66854E-008	0.00000E+000	4.20000E-001	9.62792E-004	5	..........a	-327.66
	1065	213.2	4.09995E-001	1.51266E-008	0.00000E+000	4.10000E-001	1.00409E-003	5	..........a	-327.66
	1066	213.4	3.99966E-001	1.35947E-008	0.00000E+000	4.00000E-001	9.80892E-004	5	..........a	-327.66
	1067	213.6	3.90042E-001	1.20305E-008	0.00000E+000	3.90000E-001	1.00109E-003	5	..........a	-327.66
	1068	213.8	3.80063E-001	1.04155E-008	0.00000E+000	3.80000E-001	9.71192E-004	5	..........a	-327.66
	1069	214	3.70040E-001	8.86821E-009	0.00000E+000	3.70000E-001	9.71092E-004	5	..........a	-327.66
	1070	214.2	3.59996E-001	7.27433E-009	0.00000E+000	3.60000E-001	9.84392E-004	5	..........a	-327.66
	1071	214.4	3.50022E-001	5.70185E-009	0.00000E+000	3.50000E-001	1.00249E-003	5	..........a	-327.66
	1072	214.6	3.40076E-001	4.07335E-009	0.00000E+000	3.40000E-001	9.81492E-004	5	..........a	-327.66
	1073	214.8	3.30002E-001	2.46655E-009	0.00000E+000	3.30000E-001	9.93992E-004	5	..........a	-327.66
	1074	215	3.20034E-001	7.97796E-010	0.00000E+000	3.20000E-001	9.82292E-004	5	..........a	-327.66
	1075	215.2	3.10026E-001	-9.12557E-010	0.00000E+000	3.10000E-001	9.84292E-004	5	..........a	-327.66
	1076	215.4	3.00044E-001	-2.57046E-009	0.00000E+000	3.00000E-001	9.62292E-004	5	..........a	-327.66
	1077	215.6	2.90079E-001	-4.23364E-009	0.00000E+000	2.90000E-001	9.84792E-004	5	..........a	-327.66
	1078	215.8	2.80021E-001	-6.05347E-009	0.00000E+000	2.80000E-001	9.76292E-004	5	..........a	-327.66
	1079	216	2.70094E-001	-7.84254E-009	0.00000E+000	2.70000E-001	9.83992E-004	5	..........a	-327.66
	1080	216.2	2.60063E-001	-9.69677E-009	0.00000E+000	2.60000E-001	9.63592E-004	5	..........a	-327.66
	1081	216.4	2.50043E-001	-1.15638E-008	0.00000E+000	2.50000E-001	9.77792E-004	5	..........a	-327.66
	1082	216.6	2.40063E-001	-1.34296E-008	0.00000E+000	2.40000E-001	9.86292E-004	5	..........a	-327.66
	1083	216.8	2.30048E-001	-1.52925E-008	0.00000E+000	2.30000E-001	9.80592E-004	5	..........a	-327.66
	1084	217	2.20096E-001	-1.70538E-008	0.00000E+000	2.20000E-001	9.64392E-004	5	..........a	-327.66
	1085	217.2	2.10037E-001	-1.87669E-008	0.00000E+000	2.10000E-001	9.72792E-004	5	..........a	-327.66
	1086	217.4	2.00074E-001	-2.02888E-008	0.00000E+000	2.00000E-001	9.84392E-004	5	..........a	-327.66
	1087	217.6	1.90115E-001	-2.15835E-008	0.00000E+000	1.90000E-001	9.75992E-004	5	..........a	-327.66
	1088	217.8	1.80097E-001	-2.26639E-008	0.00000E+000	1.80000E-001	9.60692E-004	5	..........a	-327.66
	1089	218	1.70100E-001	-2.34610E-008	0.00000E+000	1.70000E-001	9.85592E-004	5	..........a	-327.66
	1090	218.2	1.60075E-001	-2.39522E-008	0.00000E+000	1.60000E-001	9.87892E-004	5	..........a	-327.66
	1091	218.4	1.50113E-001	-2.41988E-008	0.00000E+000	1.50000E-001	9.83392E-004	5	..........a	-327.66
	1092	218.6	1.40134E-001	-2.42214E-008	0.00000E+000	1.40000E-001	9.65492E-004	5	..........a	-327.66
	1093	218.8	1.30098E-001	-2.40253E-008	0.00000E+000	1.30000E-001	9.84692E-004	5	..........a	-327.66
	1094	219	1.20072E-001	-2.36057E-008	0.00000E+000	1.20000E-001	9.75892E-004	5	..........a	-327.66
	1095	219.2	1.10110E-001	-2.30716E-008	0.00000E+000	1.10000E-001	9.78792E-004	5	..........a	-327.66
	1096	219.4	1.00122E-001	-2.24836E-008	0.00000E+000	1.00000E-001	9.59092E-004	5	..........a	-327.66
	1097	219.6	9.00938E-002	-2.18564E-008	0.00000E+000	9.00000E-002	9.57192E-004	5	..........a	-327.66
	1098	219.8	8.00686E-002	-2.12563E-008	0.00000E+000	8.00000E-002	9.78692E-004	5	..........a	-327.66
	1099	220	7.00649E-002	-2.07815E-008	0.00000E+000	7.00000E-002	9.72392E-004	5	..........a	-327.66
	1100	220.2	6.01230E-002	-2.04050E-008	0.00000E+000	6.00000E-002	9.69492E-004	5	..........a	-327.66
	1101	220.4	5.00811E-002	-2.02215E-008	0.00000E+000	5.00000E-002	9.81092E-004	5	..........a	-327.66
	1102	220.6	4.01037E-002	-2.01830E-008	0.00000E+000	4.00000E-002	9.69992E-004	5	..........a	-327.66
	1103	220.8	3.00994E-002	-2.01923E-008	0.00000E+000	3.00000E-002	9.71092E-004	5	..........a	-327.66
	1104	221	2.01572E-002	-2.03193E-008	0.00000E+000	2.00000E-002	9.62092E-004	5	..........a	-327.66
	1105	221.2	1.01188E-002	-2.05467E-008	0.00000E+000	1.00000E-002	9.74092E-004	5	..........a	-327.66
	1106	221.4	7.14416E-005	-2.08551E-008	0.00000E+000	7.45058E-009	9.85092E-004	5	..........a	-327.66
	1107	221.6	-9.86396E-003	-2.12192E-008	0.00000E+000	-1.00000E-002	9.70792E-004	5	..........a	-327.66
	1108	221.8	-1.99113E-002	-2.17168E-008	0.00000E+000	-2.00000E-002	9.73792E-004	5	..........a	-327.66
	1109	222	-2.99317E-002	-2.23077E-008	0.00000E+000	-3.00000E-002	9.75192E-004	5	..........a	-327.66
	1110	222.2	-3.99142E-002	-2.28982E-008	0.00000E+000	-4.00000E-002	9.78392E-004	5	..........a	-327.66
	1111	222.4	-4.98822E-002	-2.35619E-008	0.00000E+000	-5.00000E-002	9.67192E-004	5	..........a	-327.66
	1112	222.6	-5.98910E-002	-2.42589E-008	0.00000E+000	-6.00000E-002	9.70892E-004	5	..........a	-327.66
	1113	222.8	-6.98872E-002	-2.50271E-008	0.00000E+000	-7.00000E-002	9.64792E-004	5	..........a	-327.66
	1114	223	-7.99143E-002	-2.58064E-008	0.00000E+000	-8.00000E-002	9.81392E-004	5	..........a	-327.66
	1115	223.2	-8.99037E-002	-2.66215E-008	0.00000E+000	-9.00000E-002	9.80992E-004	5	..........a	-327.66
	1116	223.4	-9.98985E-002	-2.74809E-008	0.00000E+000	-1.00000E-001	9.55792E-004	5	..........a	-327.66
	1117	223.6	-1.09958E-001	-2.82663E-008	0.00000E+000	-1.10000E-001	9.80992E-004	5	..........a	-327.66
	1118	223.8	-1.19902E-001	-2.90603E-008	0.00000E+000	-1.20000E-001	9.70292E-004	5	..........a	-327.66
	1119	224	-1.29904E-001	-2.98863E-008	0.00000E+000	-1.30000E-001	9.73792E-004	5	..........a	-327.66
	1120	224.2	-1.39924E-001	-3.06672E-008	0.00000E+000	-1.40000E-001	9.55492E-004	5	..........a	-327.66