File: data/raw/batch_data/20240424_ZI_GM0016_HL03_E09_CV50.DTA
EXPLAIN
TAG	CV
TITLE	LABEL	Cyclic Voltammetry	Test &Identifier
DATE	LABEL	4/24/2024	Date
TIME	LABEL	18:41:37	Time
NOTES	NOTES	1	&Notes...

PSTAT	PSTAT	REF600P-43058	Potentiostat
VINIT	POTEN	0.00000E+000	T	Initial &E (V)
VLIMIT1	POTEN	-6.00000E-001	F	Scan Limit &1 (V)
VLIMIT2	POTEN	8.00000E-001	F	Scan Limit &2 (V)
VFINAL	POTEN	0.00000E+000	T	Final &E (V)
SCANRATE	QUANT	4.99999E+001	&Scan Rate (mV/s)
STEPSIZE	QUANT	1.00000E+001	St&ep Size (mV)
CYCLES	IQUANT	4	C&ycles (#)
IMODE	SELECTOR	0	I/E Range &Mode
IRANGE	QUANT	1.00000E-005	&Max Current (mA)
AREA	QUANT	1.00000E+000	Electrode &Area (cm^2)
ELECTRODETYPE	SELECTOR	0	Electrode Type
STRIPPING	TOGGLE	F	Used for Stripping
POLARITY	TOGGLE	F	Signal Polarity
CONDIT	TWOPARAM	F	1.50000E+001	0.00000E+000	Conditionin&g	Time(s)	E(V)
DELAY	TWOPARAM	T	1.00000E+001	0.00000E+000	Init. De&lay	Time(s)	Stab.(mV/s)
EQDELAY	QUANT	1.00000E+001	Equil. &Time (s)
IRCOMP	SELECTOR	0	IRCom&p
PFCOR	QUANT	5.00000E+001	PF Corr. (ohm)
SAMPLINGMODE	SELECTOR	1	Sampling &Mode
OCVCURVE	TABLE	39
	Pt	T	Vf	Vm	Ach	Over	Temp
	#	s	V vs. Ref.	V	V	bits	deg C
	0	0.258333	-4.41129E-002	-4.41129E-002	2.47326E-004	..........a	-327.66
	1	0.516667	-4.41154E-002	-4.42474E-002	2.44259E-004	..........a	-327.66
	2	0.775	-4.41310E-002	-4.43655E-002	2.51059E-004	..........a	-327.66
	3	1.03333	-4.41749E-002	-4.44963E-002	2.52859E-004	..........a	-327.66
	4	1.29167	-4.42536E-002	-4.46177E-002	2.49592E-004	..........a	-327.66
	5	1.55	-4.43598E-002	-4.47440E-002	2.44059E-004	..........a	-327.66
	6	1.80833	-4.44806E-002	-4.48653E-002	2.46192E-004	..........a	-327.66
	7	2.06667	-4.46058E-002	-4.49767E-002	2.42859E-004	..........a	-327.66
	8	2.325	-4.47301E-002	-4.50972E-002	2.42192E-004	..........a	-327.66
	9	2.58333	-4.48514E-002	-4.52163E-002	2.43526E-004	..........a	-327.66
	10	2.84167	-4.49704E-002	-4.53349E-002	2.32392E-004	..........a	-327.66
	11	3.1	-4.50887E-002	-4.54521E-002	2.48659E-004	..........a	-327.66
	12	3.35833	-4.52067E-002	-4.55630E-002	2.43659E-004	..........a	-327.66
	13	3.61667	-4.53242E-002	-4.56817E-002	2.46592E-004	..........a	-327.66
	14	3.875	-4.54405E-002	-4.57862E-002	2.42526E-004	..........a	-327.66
	15	4.13333	-4.55554E-002	-4.59081E-002	2.34059E-004	..........a	-327.66
	16	4.39167	-4.56691E-002	-4.60140E-002	2.49459E-004	..........a	-327.66
	17	4.65	-4.57820E-002	-4.61195E-002	2.48992E-004	..........a	-327.66
	18	4.90833	-4.58940E-002	-4.62375E-002	2.34059E-004	..........a	-327.66
	19	5.16667	-4.60048E-002	-4.63419E-002	2.57326E-004	..........a	-327.66
	20	5.425	-4.61148E-002	-4.64416E-002	2.43392E-004	..........a	-327.66
	21	5.68333	-4.62239E-002	-4.65615E-002	2.37859E-004	..........a	-327.66
	22	5.94167	-4.63320E-002	-4.66611E-002	2.57926E-004	..........a	-327.66
	23	6.2	-4.64395E-002	-4.67609E-002	2.36926E-004	..........a	-327.66
	24	6.45833	-4.65465E-002	-4.68797E-002	2.37926E-004	..........a	-327.66
	25	6.71667	-4.66527E-002	-4.69764E-002	2.52592E-004	..........a	-327.66
	26	6.975	-4.67586E-002	-4.70695E-002	2.47659E-004	..........a	-327.66
	27	7.23333	-4.68633E-002	-4.71808E-002	2.51192E-004	..........a	-327.66
	28	7.49167	-4.69664E-002	-4.72915E-002	2.44259E-004	..........a	-327.66
	29	7.75	-4.70692E-002	-4.73816E-002	2.61459E-004	..........a	-327.66
	30	8.00833	-4.71726E-002	-4.74825E-002	2.44459E-004	..........a	-327.66
	31	8.26667	-4.72751E-002	-4.75857E-002	2.35392E-004	..........a	-327.66
	32	8.525	-4.73762E-002	-4.76851E-002	2.49926E-004	..........a	-327.66
	33	8.78333	-4.74765E-002	-4.77799E-002	2.48992E-004	..........a	-327.66
	34	9.04167	-4.75762E-002	-4.78743E-002	2.50526E-004	..........a	-327.66
	35	9.3	-4.76748E-002	-4.79771E-002	2.39059E-004	..........a	-327.66
	36	9.5583	-4.77725E-002	-4.80747E-002	2.52659E-004	..........a	-327.66
	37	9.8167	-4.78701E-002	-4.81680E-002	2.44726E-004	..........a	-327.66
	38	10.075	-4.79677E-002	-4.82633E-002	2.51526E-004	..........a	-327.66
EOC	QUANT	-0.0479677	Open Circuit (V)
PSTATMODEL	IQUANT	7	Pstat Model
PSTATSECTION	LABEL	REF600P-43058	Pstat Section
PSTATSERIALNO	LABEL	43058	Pstat Serial Number
CTRLMODE	IQUANT	1	Control Mode
ELECTROMETER	IQUANT	0	RE=0 or CS=1
IESTAB	IQUANT	2	I/E Stability
CASPEED	IQUANT	4	Control Amp Speed
CONVENTION	IQUANT	1	Current Convention
ICHRANGE	IQUANT	2	Ich Range
ICHRANGEMODE	TOGGLE	F	Ich Auto Range
ICHOFFSETENABLE	TOGGLE	F	Ich Offset Enable
ICHOFFSET	QUANT	0	Ich Offset (V)
ICHFILTER	IQUANT	2	Ich Filter
VCHRANGE	IQUANT	2	Vch Range
VCHRANGEMODE	TOGGLE	F	Vch Auto Range
VCHOFFSETENABLE	TOGGLE	F	Vch Offset Enable
VCHOFFSET	QUANT	0	Vch Offset (V)
VCHFILTER	IQUANT	2	Vch Filter
ACHRANGE	IQUANT	2	Ach Range
ACHOFFSETENABLE	TOGGLE	F	Ach Offset Enable
ACHOFFSET	QUANT	0	Ach Offset (V)
ACHFILTER	IQUANT	1	Ach Filter
IERANGELOWERLIMIT	IQUANT	1	I/E Range Lower Limit
IERANGEMODE	TOGGLE	T	I/E AutoRange
IERANGE	IQUANT	4	I/E Range
POSFEEDENABLE	TOGGLE	F	Positive Feedback IR Comp
POSFEEDRESISTANCE	QUANT	0	Positive Feedback Resistance (ohm)
ACHSELECT	IQUANT	4	Ach Select
SENSECABLEID	IQUANT	7	Sense Cable ID
PWRCABLEID	IQUANT	7	Power Cable ID
DCCALDATE	LABEL	3/22/2024	DC Calibration Date
ACCALDATE	LABEL	3/22/2024	AC Calibration Date
THERMOSELECT	IQUANT	1	Thermo Select
FRAMEWORKVERSION	LABEL	7.8.4	Framework Version
INSTRUMENTVERSION	LABEL	4.42	Instrument Version
CURVE1	TABLE
	Pt	T	Vf	Im	Vu	Sig	Ach	IERange	Over	Temp
	#	s	V vs. Ref.	A	V	V	V	#	bits	deg C
	0	0.2	-4.79223E-002	7.06833E-010	0.00000E+000	-4.79500E-002	9.96292E-004	5	..........a	-327.66
	2	0.6	-6.78352E-002	-4.22900E-009	0.00000E+000	-6.79500E-002	9.85492E-004	5	..........a	-327.66
	4	1	-8.79357E-002	-7.51381E-009	0.00000E+000	-8.79500E-002	9.94392E-004	5	..........a	-327.66
	6	1.4	-1.07839E-001	-1.03710E-008	0.00000E+000	-1.07950E-001	9.70792E-004	5	..........a	-327.66
	8	1.8	-1.27948E-001	-1.30400E-008	0.00000E+000	-1.27950E-001	1.00999E-003	5	..........a	-327.66
	10	2.2	-1.47862E-001	-1.55366E-008	0.00000E+000	-1.47950E-001	9.93192E-004	5	..........a	-327.66
	12	2.6	-1.67885E-001	-1.79569E-008	0.00000E+000	-1.67950E-001	9.95592E-004	5	..........a	-327.66
	14	3	-1.87823E-001	-2.03023E-008	0.00000E+000	-1.87950E-001	9.94592E-004	5	..........a	-327.66
	16	3.4	-2.07903E-001	-2.26092E-008	0.00000E+000	-2.07950E-001	9.97592E-004	5	..........a	-327.66
	18	3.8	-2.27799E-001	-2.49018E-008	0.00000E+000	-2.27950E-001	9.94992E-004	5	..........a	-327.66
	20	4.2	-2.47852E-001	-2.72096E-008	0.00000E+000	-2.47950E-001	1.00809E-003	5	..........a	-327.66
	22	4.6	-2.67763E-001	-2.96132E-008	0.00000E+000	-2.67950E-001	9.92092E-004	5	..........a	-327.66
	24	5	-2.87867E-001	-3.20981E-008	0.00000E+000	-2.87950E-001	9.99692E-004	5	..........a	-327.66
	26	5.4	-3.07774E-001	-3.47291E-008	0.00000E+000	-3.07950E-001	1.00009E-003	5	..........a	-327.66
	28	5.8	-3.27880E-001	-3.75646E-008	0.00000E+000	-3.27950E-001	1.01109E-003	5	..........a	-327.66
	30	6.2	-3.47821E-001	-4.06133E-008	0.00000E+000	-3.47950E-001	9.94592E-004	5	..........a	-327.66
	32	6.6	-3.67837E-001	-4.38665E-008	0.00000E+000	-3.67950E-001	1.00199E-003	5	..........a	-327.66
	34	7	-3.87749E-001	-4.72121E-008	0.00000E+000	-3.87950E-001	9.99592E-004	5	..........a	-327.66
	36	7.4	-4.07829E-001	-5.06864E-008	0.00000E+000	-4.07950E-001	1.01389E-003	5	..........a	-327.66
	38	7.8	-4.27779E-001	-5.42692E-008	0.00000E+000	-4.27950E-001	9.83992E-004	5	..........a	-327.66
	40	8.2	-4.47800E-001	-5.78064E-008	0.00000E+000	-4.47950E-001	9.94692E-004	5	..........a	-327.66
	42	8.6	-4.67712E-001	-6.13673E-008	0.00000E+000	-4.67950E-001	9.94692E-004	5	..........a	-327.66
	44	9	-4.87804E-001	-6.48937E-008	0.00000E+000	-4.87950E-001	9.89392E-004	5	..........a	-327.66
	46	9.4	-5.07743E-001	-6.83406E-008	0.00000E+000	-5.07950E-001	9.72292E-004	5	..........a	-327.66
	48	9.8	-5.27797E-001	-7.17651E-008	0.00000E+000	-5.27950E-001	9.91292E-004	5	..........a	-327.66
	50	10.2	-5.47810E-001	-7.51477E-008	0.00000E+000	-5.47950E-001	9.82592E-004	5	..........a	-327.66
	52	10.6	-5.67834E-001	-7.85485E-008	0.00000E+000	-5.67950E-001	1.00739E-003	5	..........a	-327.66
	54	11	-5.87738E-001	-8.21048E-008	0.00000E+000	-5.87950E-001	9.88692E-004	5	..........a	-327.66
	56	11.4	-5.87730E-001	-7.27806E-008	0.00000E+000	-5.87950E-001	9.95692E-004	5	..........a	-327.66
	58	11.8	-5.67833E-001	-5.99226E-008	0.00000E+000	-5.67950E-001	1.00049E-003	5	..........a	-327.66
	60	12.2	-5.47798E-001	-5.13401E-008	0.00000E+000	-5.47950E-001	9.99892E-004	5	..........a	-327.66
	62	12.6	-5.27769E-001	-4.44582E-008	0.00000E+000	-5.27950E-001	9.98792E-004	5	..........a	-327.66
	64	13	-5.07768E-001	-3.87554E-008	0.00000E+000	-5.07950E-001	9.84792E-004	5	..........a	-327.66
	66	13.4	-4.87799E-001	-3.37813E-008	0.00000E+000	-4.87950E-001	1.02109E-003	5	..........a	-327.66
	68	13.8	-4.67703E-001	-2.93373E-008	0.00000E+000	-4.67950E-001	9.87892E-004	5	..........a	-327.66
	70	14.2	-4.47785E-001	-2.53017E-008	0.00000E+000	-4.47950E-001	1.00979E-003	5	..........a	-327.66
	72	14.6	-4.27792E-001	-2.16800E-008	0.00000E+000	-4.27950E-001	9.83792E-004	5	..........a	-327.66
	74	15	-4.07831E-001	-1.83029E-008	0.00000E+000	-4.07950E-001	9.85092E-004	5	..........a	-327.66
	76	15.4	-3.87770E-001	-1.51798E-008	0.00000E+000	-3.87950E-001	9.89792E-004	5	..........a	-327.66
	78	15.8	-3.67897E-001	-1.22824E-008	0.00000E+000	-3.67950E-001	1.00349E-003	5	..........a	-327.66
	80	16.2	-3.47827E-001	-9.55807E-009	0.00000E+000	-3.47950E-001	9.94692E-004	5	..........a	-327.66
	82	16.6	-3.27887E-001	-7.00518E-009	0.00000E+000	-3.27950E-001	9.97392E-004	5	..........a	-327.66
	84	17	-3.07828E-001	-4.59727E-009	0.00000E+000	-3.07950E-001	1.00019E-003	5	..........a	-327.66
	86	17.4	-2.87874E-001	-2.30474E-009	0.00000E+000	-2.87950E-001	1.02049E-003	5	..........a	-327.66
	88	17.8	-2.67793E-001	-1.54409E-010	0.00000E+000	-2.67950E-001	9.91892E-004	5	..........a	-327.66
	90	18.2	-2.47869E-001	2.00839E-009	0.00000E+000	-2.47950E-001	1.00419E-003	5	..........a	-327.66
	92	18.6	-2.27815E-001	4.03000E-009	0.00000E+000	-2.27950E-001	9.98792E-004	5	..........a	-327.66
	94	19	-2.07876E-001	5.97355E-009	0.00000E+000	-2.07950E-001	9.90092E-004	5	..........a	-327.66
	96	19.4	-1.87863E-001	7.85503E-009	0.00000E+000	-1.87950E-001	1.00639E-003	5	..........a	-327.66
	98	19.8	-1.67874E-001	9.72145E-009	0.00000E+000	-1.67950E-001	1.00389E-003	5	..........a	-327.66
	100	20.2	-1.47877E-001	1.15197E-008	0.00000E+000	-1.47950E-001	9.79392E-004	5	..........a	-327.66
	102	20.6	-1.28012E-001	1.32957E-008	0.00000E+000	-1.27950E-001	1.02429E-003	5	..........a	-327.66
	104	21	-1.07825E-001	1.50362E-008	0.00000E+000	-1.07950E-001	9.90992E-004	5	..........a	-327.66
	106	21.4	-8.80441E-002	1.68175E-008	0.00000E+000	-8.79500E-002	1.01289E-003	5	..........a	-327.66
	108	21.8	-6.78621E-002	1.85500E-008	0.00000E+000	-6.79500E-002	9.86492E-004	5	..........a	-327.66
	110	22.2	-4.79403E-002	2.03696E-008	0.00000E+000	-4.79500E-002	1.01149E-003	5	..........a	-327.66
	112	22.6	-2.78541E-002	2.22570E-008	0.00000E+000	-2.79500E-002	9.81692E-004	5	..........a	-327.66
	114	23	-7.95451E-003	2.42017E-008	0.00000E+000	-7.94999E-003	9.84692E-004	5	..........a	-327.66
	116	23.4	1.21443E-002	2.62222E-008	0.00000E+000	1.20500E-002	9.90092E-004	5	..........a	-327.66
	118	23.8	3.20326E-002	2.83101E-008	0.00000E+000	3.20500E-002	1.02779E-003	5	..........a	-327.66
	120	24.2	5.21750E-002	3.04354E-008	0.00000E+000	5.20500E-002	9.94992E-004	5	..........a	-327.66
	122	24.6	7.20734E-002	3.25509E-008	0.00000E+000	7.20500E-002	1.00719E-003	5	..........a	-327.66
	124	25	9.21955E-002	3.46608E-008	0.00000E+000	9.20500E-002	9.89292E-004	5	..........a	-327.66
	126	25.4	1.12110E-001	3.68450E-008	0.00000E+000	1.12050E-001	1.01119E-003	5	..........a	-327.66
	128	25.8	1.32152E-001	3.92038E-008	0.00000E+000	1.32050E-001	1.00209E-003	5	..........a	-327.66
	130	26.2	1.52006E-001	4.36162E-008	0.00000E+000	1.52050E-001	1.01459E-003	5	..........a	-327.66
	132	26.6	1.72166E-001	4.64802E-008	0.00000E+000	1.72050E-001	1.00399E-003	5	..........a	-327.66
	134	27	1.92119E-001	4.77107E-008	0.00000E+000	1.92050E-001	1.00509E-003	5	..........a	-327.66
	136	27.4	2.12091E-001	4.94772E-008	0.00000E+000	2.12050E-001	9.95692E-004	5	..........a	-327.66
	138	27.8	2.32014E-001	5.21408E-008	0.00000E+000	2.32050E-001	9.92492E-004	5	..........a	-327.66
	140	28.2	2.52123E-001	5.54216E-008	0.00000E+000	2.52050E-001	9.94492E-004	5	..........a	-327.66
	142	28.6	2.71971E-001	5.91983E-008	0.00000E+000	2.72050E-001	1.01139E-003	5	..........a	-327.66
	144	29	2.92088E-001	6.34131E-008	0.00000E+000	2.92050E-001	1.00969E-003	5	..........a	-327.66
	146	29.4	3.12031E-001	6.80268E-008	0.00000E+000	3.12050E-001	1.01449E-003	5	..........a	-327.66
	148	29.8	3.32099E-001	7.30962E-008	0.00000E+000	3.32050E-001	9.97692E-004	5	..........a	-327.66
	150	30.2	3.52044E-001	7.86505E-008	0.00000E+000	3.52050E-001	1.01039E-003	5	..........a	-327.66
	152	30.6	3.72125E-001	8.46130E-008	0.00000E+000	3.72050E-001	1.00829E-003	5	..........a	-327.66
	154	31	3.92021E-001	9.08702E-008	0.00000E+000	3.92050E-001	1.00869E-003	5	..........a	-327.66
	156	31.4	4.12028E-001	9.73429E-008	0.00000E+000	4.12050E-001	9.90892E-004	5	..........a	-327.66
	158	31.8	4.31939E-001	1.04163E-007	0.00000E+000	4.32050E-001	1.02159E-003	5	..........a	-327.66
	160	32.2	4.52076E-001	1.11087E-007	0.00000E+000	4.52050E-001	9.92192E-004	5	..........a	-327.66
	162	32.6	4.72010E-001	1.18132E-007	0.00000E+000	4.72050E-001	9.91392E-004	5	..........a	-327.66
	164	33	4.91987E-001	1.25192E-007	0.00000E+000	4.92050E-001	1.01439E-003	5	..........a	-327.66
	166	33.4	5.11930E-001	1.32143E-007	0.00000E+000	5.12050E-001	1.01489E-003	5	..........a	-327.66
	168	33.8	5.32019E-001	1.38933E-007	0.00000E+000	5.32050E-001	9.95892E-004	5	..........a	-327.66
	170	34.2	5.51964E-001	1.45439E-007	0.00000E+000	5.52050E-001	1.01159E-003	5	..........a	-327.66
	172	34.6	5.71979E-001	1.51691E-007	0.00000E+000	5.72050E-001	1.01099E-003	5	..........a	-327.66
	174	35	5.91938E-001	1.57740E-007	0.00000E+000	5.92050E-001	9.81692E-004	5	..........a	-327.66
	176	35.4	6.11963E-001	1.63609E-007	0.00000E+000	6.12050E-001	9.86992E-004	5	..........a	-327.66
	178	35.8	6.31902E-001	1.69445E-007	0.00000E+000	6.32050E-001	1.01439E-003	5	..........a	-327.66
	180	36.2	6.51933E-001	1.75220E-007	0.00000E+000	6.52050E-001	1.00209E-003	5	..........a	-327.66
	182	36.6	6.71893E-001	1.81090E-007	0.00000E+000	6.72050E-001	9.95592E-004	5	..........a	-327.66
	184	37	6.91880E-001	1.87241E-007	0.00000E+000	6.92050E-001	1.00129E-003	5	..........a	-327.66
	186	37.4	7.11880E-001	1.93743E-007	0.00000E+000	7.12050E-001	9.90492E-004	5	..........a	-327.66
	188	37.8	7.31819E-001	2.00834E-007	0.00000E+000	7.32050E-001	9.98292E-004	5	..........a	-327.66
	190	38.2	7.51901E-001	2.08707E-007	0.00000E+000	7.52050E-001	9.96592E-004	5	..........a	-327.66
	192	38.6	7.71892E-001	2.17645E-007	0.00000E+000	7.72050E-001	1.00439E-003	5	..........a	-327.66
	194	39	7.91875E-001	2.27713E-007	0.00000E+000	7.92050E-001	1.01539E-003	5	..........a	-327.66
	195	39.2	8.01897E-001	2.33233E-007	0.00000E+000	8.02050E-001	1.00169E-003	5	..........a	-327.66
CURVE2	TABLE
	Pt	T	Vf	Im	Vu	Sig	Ach	IERange	Over	Temp
	#	s	V vs. Ref.	A	V	V	V	#	bits	deg C
	196	39.4	7.89950E-001	1.86382E-007	0.00000E+000	7.90000E-001	9.97192E-004	5	..........a	-327.66
	199	40	7.59912E-001	1.24898E-007	0.00000E+000	7.60000E-001	1.01249E-003	5	..........a	-327.66
	202	40.6	7.29936E-001	9.40332E-008	0.00000E+000	7.30000E-001	1.02449E-003	5	..........a	-327.66
	205	41.2	6.99916E-001	7.47227E-008	0.00000E+000	7.00000E-001	9.87892E-004	5	..........a	-327.66
	208	41.8	6.69978E-001	6.09091E-008	0.00000E+000	6.70000E-001	1.00599E-003	5	..........a	-327.66
	211	42.4	6.39906E-001	5.01086E-008	0.00000E+000	6.40000E-001	1.02209E-003	5	..........a	-327.66
	214	43	6.09950E-001	4.10940E-008	0.00000E+000	6.10000E-001	1.00929E-003	5	..........a	-327.66
	217	43.6	5.80024E-001	3.33228E-008	0.00000E+000	5.80000E-001	1.00549E-003	5	..........a	-327.66
	220	44.2	5.50039E-001	2.65152E-008	0.00000E+000	5.50000E-001	1.00369E-003	5	..........a	-327.66
	223	44.8	5.19976E-001	2.02748E-008	0.00000E+000	5.20000E-001	1.00149E-003	5	..........a	-327.66
	226	45.4	4.89945E-001	1.45824E-008	0.00000E+000	4.90000E-001	9.91592E-004	5	..........a	-327.66
	229	46	4.60015E-001	9.27724E-009	0.00000E+000	4.60000E-001	1.00679E-003	5	..........a	-327.66
	232	46.6	4.29976E-001	3.95364E-009	0.00000E+000	4.30000E-001	1.00479E-003	5	..........a	-327.66
	235	47.2	3.99974E-001	-1.61837E-009	0.00000E+000	4.00000E-001	9.87592E-004	5	..........a	-327.66
	238	47.8	3.70053E-001	-7.30181E-009	0.00000E+000	3.70000E-001	1.01189E-003	5	..........a	-327.66
	241	48.4	3.40102E-001	-1.34045E-008	0.00000E+000	3.40000E-001	1.00449E-003	5	..........a	-327.66
	244	49	3.10065E-001	-2.01170E-008	0.00000E+000	3.10000E-001	1.02319E-003	5	..........a	-327.66
	247	49.6	2.79990E-001	-2.76684E-008	0.00000E+000	2.80000E-001	9.95892E-004	5	..........a	-327.66
	250	50.2	2.50031E-001	-3.61935E-008	0.00000E+000	2.50000E-001	1.01199E-003	5	..........a	-327.66
	253	50.8	2.20091E-001	-4.50555E-008	0.00000E+000	2.20000E-001	9.83492E-004	5	..........a	-327.66
	256	51.4	1.90129E-001	-5.22260E-008	0.00000E+000	1.90000E-001	1.00559E-003	5	..........a	-327.66
	259	52	1.60092E-001	-5.48281E-008	0.00000E+000	1.60000E-001	9.98392E-004	5	..........a	-327.66
	262	52.6	1.30080E-001	-5.20843E-008	0.00000E+000	1.30000E-001	1.00489E-003	5	..........a	-327.66
[...]
	1035	207.2	7.99842E-001	1.99167E-007	0.00000E+000	8.00000E-001	1.00349E-003	5	..........a	-327.66
CURVE5	TABLE
	Pt	T	Vf	Im	Vu	Sig	Ach	IERange	Over	Temp
	#	s	V vs. Ref.	A	V	V	V	#	bits	deg C
	1036	207.4	7.89958E-001	1.62283E-007	0.00000E+000	7.90000E-001	1.03179E-003	5	..........a	-327.66
	1037	207.6	7.79875E-001	1.38261E-007	0.00000E+000	7.80000E-001	9.97492E-004	5	..........a	-327.66
	1038	207.8	7.69884E-001	1.20871E-007	0.00000E+000	7.70000E-001	1.01249E-003	5	..........a	-327.66
	1039	208	7.59888E-001	1.07464E-007	0.00000E+000	7.60000E-001	1.00089E-003	5	..........a	-327.66
	1040	208.2	7.49973E-001	9.68207E-008	0.00000E+000	7.50000E-001	1.00049E-003	5	..........a	-327.66
	1041	208.4	7.39919E-001	8.80549E-008	0.00000E+000	7.40000E-001	1.00149E-003	5	..........a	-327.66
	1042	208.6	7.29914E-001	8.06573E-008	0.00000E+000	7.30000E-001	1.01389E-003	5	..........a	-327.66
	1043	208.8	7.19896E-001	7.43569E-008	0.00000E+000	7.20000E-001	1.00149E-003	5	..........a	-327.66
	1044	209	7.09960E-001	6.88160E-008	0.00000E+000	7.10000E-001	1.02359E-003	5	..........a	-327.66
	1045	209.2	6.99929E-001	6.38998E-008	0.00000E+000	7.00000E-001	9.96692E-004	5	..........a	-327.66
	1046	209.4	6.89920E-001	5.94653E-008	0.00000E+000	6.90000E-001	1.00229E-003	5	..........a	-327.66
	1047	209.6	6.79964E-001	5.54167E-008	0.00000E+000	6.80000E-001	1.00959E-003	5	..........a	-327.66
	1048	209.8	6.69984E-001	5.16668E-008	0.00000E+000	6.70000E-001	1.00639E-003	5	..........a	-327.66
	1049	210	6.59947E-001	4.82266E-008	0.00000E+000	6.60000E-001	9.95592E-004	5	..........a	-327.66
	1050	210.2	6.49952E-001	4.49844E-008	0.00000E+000	6.50000E-001	1.01609E-003	5	..........a	-327.66
	1051	210.4	6.39888E-001	4.19116E-008	0.00000E+000	6.40000E-001	1.01459E-003	5	..........a	-327.66
	1052	210.6	6.30005E-001	3.89666E-008	0.00000E+000	6.30000E-001	1.00519E-003	5	..........a	-327.66
	1053	210.8	6.19952E-001	3.62170E-008	0.00000E+000	6.20000E-001	1.00249E-003	5	..........a	-327.66
	1054	211	6.09944E-001	3.35856E-008	0.00000E+000	6.10000E-001	1.01319E-003	5	..........a	-327.66
	1055	211.2	5.99984E-001	3.10884E-008	0.00000E+000	6.00000E-001	9.90092E-004	5	..........a	-327.66
	1056	211.4	5.89987E-001	2.87294E-008	0.00000E+000	5.90000E-001	1.01409E-003	5	..........a	-327.66
	1057	211.6	5.80011E-001	2.65159E-008	0.00000E+000	5.80000E-001	9.89392E-004	5	..........a	-327.66
	1058	211.8	5.69976E-001	2.44155E-008	0.00000E+000	5.70000E-001	9.90392E-004	5	..........a	-327.66
	1059	212	5.59945E-001	2.23799E-008	0.00000E+000	5.60000E-001	1.01109E-003	5	..........a	-327.66
	1060	212.2	5.50041E-001	2.03385E-008	0.00000E+000	5.50000E-001	9.92192E-004	5	..........a	-327.66
	1061	212.4	5.39994E-001	1.83274E-008	0.00000E+000	5.40000E-001	1.00179E-003	5	..........a	-327.66
	1062	212.6	5.29978E-001	1.63913E-008	0.00000E+000	5.30000E-001	9.99592E-004	5	..........a	-327.66
	1063	212.8	5.19983E-001	1.44933E-008	0.00000E+000	5.20000E-001	1.00659E-003	5	..........a	-327.66
	1064	213	5.09961E-001	1.26609E-008	0.00000E+000	5.10000E-001	1.02159E-003	5	..........a	-327.66
	1065	213.2	5.00052E-001	1.09565E-008	0.00000E+000	5.00000E-001	9.87492E-004	5	..........a	-327.66
	1066	213.4	4.89958E-001	9.32186E-009	0.00000E+000	4.90000E-001	1.01859E-003	5	..........a	-327.66
	1067	213.6	4.79900E-001	7.71481E-009	0.00000E+000	4.80000E-001	1.03169E-003	5	..........a	-327.66
	1068	213.8	4.70035E-001	6.10995E-009	0.00000E+000	4.70000E-001	1.01259E-003	5	..........a	-327.66
	1069	214	4.60011E-001	4.44860E-009	0.00000E+000	4.60000E-001	1.00259E-003	5	..........a	-327.66
	1070	214.2	4.49915E-001	2.72261E-009	0.00000E+000	4.50000E-001	1.00319E-003	5	..........a	-327.66
	1071	214.4	4.39946E-001	1.04616E-009	0.00000E+000	4.40000E-001	1.01109E-003	5	..........a	-327.66
	1072	214.6	4.29987E-001	-7.81083E-010	0.00000E+000	4.30000E-001	1.02319E-003	5	..........a	-327.66
	1073	214.8	4.20027E-001	-2.49815E-009	0.00000E+000	4.20000E-001	1.00419E-003	5	..........a	-327.66
	1074	215	4.10036E-001	-4.26314E-009	0.00000E+000	4.10000E-001	1.01539E-003	5	..........a	-327.66
	1075	215.2	4.00045E-001	-6.07933E-009	0.00000E+000	4.00000E-001	1.02079E-003	5	..........a	-327.66
	1076	215.4	3.90061E-001	-7.93053E-009	0.00000E+000	3.90000E-001	1.01659E-003	5	..........a	-327.66
	1077	215.6	3.80056E-001	-9.83766E-009	0.00000E+000	3.80000E-001	9.92992E-004	5	..........a	-327.66
	1078	215.8	3.70055E-001	-1.17918E-008	0.00000E+000	3.70000E-001	1.01139E-003	5	..........a	-327.66
	1079	216	3.60060E-001	-1.38124E-008	0.00000E+000	3.60000E-001	9.91292E-004	5	..........a	-327.66
	1080	216.2	3.50036E-001	-1.59085E-008	0.00000E+000	3.50000E-001	9.99592E-004	5	..........a	-327.66
	1081	216.4	3.40091E-001	-1.80423E-008	0.00000E+000	3.40000E-001	1.01119E-003	5	..........a	-327.66
	1082	216.6	3.30046E-001	-2.03091E-008	0.00000E+000	3.30000E-001	1.00159E-003	5	..........a	-327.66
	1083	216.8	3.20048E-001	-2.27049E-008	0.00000E+000	3.20000E-001	1.00789E-003	5	..........a	-327.66
	1084	217	3.10072E-001	-2.51944E-008	0.00000E+000	3.10000E-001	9.87892E-004	5	..........a	-327.66
	1085	217.2	3.00097E-001	-2.77987E-008	0.00000E+000	3.00000E-001	9.90792E-004	5	..........a	-327.66
	1086	217.4	2.90061E-001	-3.05883E-008	0.00000E+000	2.90000E-001	9.91892E-004	5	..........a	-327.66
	1087	217.6	2.79992E-001	-3.35247E-008	0.00000E+000	2.80000E-001	1.02579E-003	5	..........a	-327.66
	1088	217.8	2.70109E-001	-3.66319E-008	0.00000E+000	2.70000E-001	9.87392E-004	5	..........a	-327.66
	1089	218	2.60073E-001	-3.98658E-008	0.00000E+000	2.60000E-001	9.94192E-004	5	..........a	-327.66
	1090	218.2	2.50022E-001	-4.32705E-008	0.00000E+000	2.50000E-001	1.00019E-003	5	..........a	-327.66
	1091	218.4	2.40078E-001	-4.66924E-008	0.00000E+000	2.40000E-001	1.01379E-003	5	..........a	-327.66
	1092	218.6	2.30046E-001	-5.01364E-008	0.00000E+000	2.30000E-001	1.01279E-003	5	..........a	-327.66
	1093	218.8	2.20024E-001	-5.35201E-008	0.00000E+000	2.20000E-001	9.82092E-004	5	..........a	-327.66
	1094	219	2.10045E-001	-5.66920E-008	0.00000E+000	2.10000E-001	1.01339E-003	5	..........a	-327.66
	1095	219.2	2.00073E-001	-5.95228E-008	0.00000E+000	2.00000E-001	1.01679E-003	5	..........a	-327.66
	1096	219.4	1.90132E-001	-6.18413E-008	0.00000E+000	1.90000E-001	9.99092E-004	5	..........a	-327.66
	1097	219.6	1.80121E-001	-6.34917E-008	0.00000E+000	1.80000E-001	9.88692E-004	5	..........a	-327.66
	1098	219.8	1.70112E-001	-6.43792E-008	0.00000E+000	1.70000E-001	1.01019E-003	5	..........a	-327.66
	1099	220	1.60082E-001	-6.44209E-008	0.00000E+000	1.60000E-001	1.00499E-003	5	..........a	-327.66
	1100	220.2	1.50097E-001	-6.36764E-008	0.00000E+000	1.50000E-001	1.00409E-003	5	..........a	-327.66
	1101	220.4	1.40144E-001	-6.21843E-008	0.00000E+000	1.40000E-001	1.00019E-003	5	..........a	-327.66
	1102	220.6	1.30099E-001	-6.00515E-008	0.00000E+000	1.30000E-001	1.00039E-003	5	..........a	-327.66
	1103	220.8	1.20063E-001	-5.74778E-008	0.00000E+000	1.20000E-001	1.02319E-003	5	..........a	-327.66
	1104	221	1.10124E-001	-5.46313E-008	0.00000E+000	1.10000E-001	1.00619E-003	5	..........a	-327.66
	1105	221.2	1.00144E-001	-5.18738E-008	0.00000E+000	1.00000E-001	9.97492E-004	5	..........a	-327.66
	1106	221.4	9.01078E-002	-4.91887E-008	0.00000E+000	9.00000E-002	1.01069E-003	5	..........a	-327.66
	1107	221.6	8.00762E-002	-4.68778E-008	0.00000E+000	8.00000E-002	1.03129E-003	5	..........a	-327.66
	1108	221.8	7.00984E-002	-4.49434E-008	0.00000E+000	7.00000E-002	1.01079E-003	5	..........a	-327.66
	1109	222	6.01307E-002	-4.35075E-008	0.00000E+000	6.00000E-002	9.77492E-004	5	..........a	-327.66
	1110	222.2	5.00669E-002	-4.25067E-008	0.00000E+000	5.00000E-002	1.00619E-003	5	..........a	-327.66
	1111	222.4	4.01369E-002	-4.19337E-008	0.00000E+000	4.00000E-002	1.00909E-003	5	..........a	-327.66
	1112	222.6	3.00756E-002	-4.15947E-008	0.00000E+000	3.00000E-002	9.85592E-004	5	..........a	-327.66
	1113	222.8	2.01644E-002	-4.16819E-008	0.00000E+000	2.00000E-002	1.00359E-003	5	..........a	-327.66
	1114	223	1.01185E-002	-4.20511E-008	0.00000E+000	1.00000E-002	1.02109E-003	5	..........a	-327.66
	1115	223.2	5.25917E-005	-4.23305E-008	0.00000E+000	7.45058E-009	1.00879E-003	5	..........a	-327.66
	1116	223.4	-9.87721E-003	-4.16376E-008	0.00000E+000	-1.00000E-002	9.93592E-004	5	..........a	-327.66
	1117	223.6	-1.98988E-002	-4.19806E-008	0.00000E+000	-2.00000E-002	9.92592E-004	5	..........a	-327.66
	1118	223.8	-2.99252E-002	-4.23797E-008	0.00000E+000	-3.00000E-002	1.00099E-003	5	..........a	-327.66
	1119	224	-3.99040E-002	-4.29237E-008	0.00000E+000	-4.00000E-002	9.97792E-004	5	..........a	-327.66
	1120	224.2	-4.99042E-002	-4.34774E-008	0.00000E+000	-5.00000E-002	1.02729E-003	5	..........a	-327.66