File: data/raw/batch_data/20240321_W_GM0016_HL03_E06_CV50.DTA
EXPLAIN
TAG	CV
TITLE	LABEL	Cyclic Voltammetry	Test &Identifier
DATE	LABEL	3/21/2024	Date
TIME	LABEL	17:45:33	Time
NOTES	NOTES	1	&Notes...

PSTAT	PSTAT	REF600P-43058	Potentiostat
VINIT	POTEN	0.00000E+000	T	Initial &E (V)
VLIMIT1	POTEN	-6.00000E-001	F	Scan Limit &1 (V)
VLIMIT2	POTEN	8.00000E-001	F	Scan Limit &2 (V)
VFINAL	POTEN	0.00000E+000	T	Final &E (V)
SCANRATE	QUANT	4.99999E+001	&Scan Rate (mV/s)
STEPSIZE	QUANT	1.00000E+001	St&ep Size (mV)
CYCLES	IQUANT	4	C&ycles (#)
IMODE	SELECTOR	1	I/E Range &Mode
IRANGE	QUANT	1.00000E-005	&Max Current (mA)
AREA	QUANT	1.00000E+000	Electrode &Area (cm^2)
ELECTRODETYPE	SELECTOR	0	Electrode Type
STRIPPING	TOGGLE	F	Used for Stripping
POLARITY	TOGGLE	F	Signal Polarity
CONDIT	TWOPARAM	F	1.50000E+001	0.00000E+000	Conditionin&g	Time(s)	E(V)
DELAY	TWOPARAM	T	1.00000E+001	0.00000E+000	Init. De&lay	Time(s)	Stab.(mV/s)
EQDELAY	QUANT	1.00000E+001	Equil. &Time (s)
IRCOMP	SELECTOR	0	IRCom&p
PFCOR	QUANT	5.00000E+001	PF Corr. (ohm)
SAMPLINGMODE	SELECTOR	1	Sampling &Mode
OCVCURVE	TABLE	39
	Pt	T	Vf	Vm	Ach	Over	Temp
	#	s	V vs. Ref.	V	V	bits	deg C
	0	0.258333	3.76815E-001	3.76815E-001	2.69356E-004	..........a	-327.66
	1	0.516667	3.76819E-001	3.76993E-001	2.48022E-004	..........a	-327.66
	2	0.775	3.76845E-001	3.77455E-001	2.49756E-004	..........a	-327.66
	3	1.03333	3.76939E-001	3.77901E-001	2.34556E-004	..........a	-327.66
	4	1.29167	3.77144E-001	3.78435E-001	2.54089E-004	..........a	-327.66
	5	1.55	3.77471E-001	3.78823E-001	2.41289E-004	..........a	-327.66
	6	1.80833	3.77886E-001	3.79339E-001	2.42756E-004	..........a	-327.66
	7	2.06667	3.78347E-001	3.79982E-001	2.52422E-004	..........a	-327.66
	8	2.325	3.78834E-001	3.80278E-001	2.30622E-004	..........a	-327.66
	9	2.58333	3.79332E-001	3.80817E-001	2.49556E-004	..........a	-327.66
	10	2.84167	3.79826E-001	3.81429E-001	2.50289E-004	..........a	-327.66
	11	3.1	3.80317E-001	3.81769E-001	2.52089E-004	..........a	-327.66
	12	3.35833	3.80809E-001	3.82308E-001	2.43289E-004	..........a	-327.66
	13	3.61667	3.81298E-001	3.82737E-001	2.28956E-004	..........a	-327.66
	14	3.875	3.81778E-001	3.83289E-001	2.61889E-004	..........a	-327.66
	15	4.13333	3.82255E-001	3.83724E-001	2.30489E-004	..........a	-327.66
	16	4.39167	3.82735E-001	3.84212E-001	2.38289E-004	..........a	-327.66
	17	4.65	3.83219E-001	3.84823E-001	2.41689E-004	..........a	-327.66
	18	4.90833	3.83709E-001	3.85157E-001	2.24689E-004	..........a	-327.66
	19	5.16667	3.84204E-001	3.85692E-001	2.49489E-004	..........a	-327.66
	20	5.425	3.84695E-001	3.86289E-001	2.44222E-004	..........a	-327.66
	21	5.68333	3.85184E-001	3.86627E-001	2.47356E-004	..........a	-327.66
	22	5.94167	3.85675E-001	3.87136E-001	2.45289E-004	..........a	-327.66
	23	6.2	3.86159E-001	3.87614E-001	2.44956E-004	..........a	-327.66
	24	6.45833	3.86634E-001	3.88102E-001	2.54756E-004	..........a	-327.66
	25	6.71667	3.87105E-001	3.88563E-001	2.35089E-004	..........a	-327.66
	26	6.975	3.87579E-001	3.89028E-001	2.40489E-004	..........a	-327.66
	27	7.23333	3.88055E-001	3.89591E-001	2.28422E-004	..........a	-327.66
	28	7.49167	3.88533E-001	3.89936E-001	2.38956E-004	..........a	-327.66
	29	7.75	3.89012E-001	3.90472E-001	2.37289E-004	..........a	-327.66
	30	8.00833	3.89486E-001	3.90963E-001	2.33956E-004	..........a	-327.66
	31	8.26667	3.89957E-001	3.91391E-001	2.39089E-004	..........a	-327.66
	32	8.525	3.90429E-001	3.91852E-001	2.39222E-004	..........a	-327.66
	33	8.78333	3.90897E-001	3.92288E-001	2.32422E-004	..........a	-327.66
	34	9.04167	3.91360E-001	3.92837E-001	2.53022E-004	..........a	-327.66
	35	9.3	3.91821E-001	3.93226E-001	2.36756E-004	..........a	-327.66
	36	9.5583	3.92285E-001	3.93714E-001	2.41289E-004	..........a	-327.66
	37	9.8167	3.92751E-001	3.94201E-001	2.28022E-004	..........a	-327.66
	38	10.075	3.93216E-001	3.94617E-001	2.35222E-004	..........a	-327.66
EOC	QUANT	0.3932158	Open Circuit (V)
PSTATMODEL	IQUANT	7	Pstat Model
PSTATSECTION	LABEL	REF600P-43058	Pstat Section
PSTATSERIALNO	LABEL	43058	Pstat Serial Number
CTRLMODE	IQUANT	1	Control Mode
ELECTROMETER	IQUANT	0	RE=0 or CS=1
IESTAB	IQUANT	2	I/E Stability
CASPEED	IQUANT	4	Control Amp Speed
CONVENTION	IQUANT	1	Current Convention
ICHRANGE	IQUANT	2	Ich Range
ICHRANGEMODE	TOGGLE	F	Ich Auto Range
ICHOFFSETENABLE	TOGGLE	F	Ich Offset Enable
ICHOFFSET	QUANT	0	Ich Offset (V)
ICHFILTER	IQUANT	2	Ich Filter
VCHRANGE	IQUANT	2	Vch Range
VCHRANGEMODE	TOGGLE	F	Vch Auto Range
VCHOFFSETENABLE	TOGGLE	F	Vch Offset Enable
VCHOFFSET	QUANT	0	Vch Offset (V)
VCHFILTER	IQUANT	2	Vch Filter
ACHRANGE	IQUANT	2	Ach Range
ACHOFFSETENABLE	TOGGLE	F	Ach Offset Enable
ACHOFFSET	QUANT	0	Ach Offset (V)
ACHFILTER	IQUANT	1	Ach Filter
IERANGELOWERLIMIT	IQUANT	1	I/E Range Lower Limit
IERANGEMODE	TOGGLE	F	I/E AutoRange
IERANGE	IQUANT	4	I/E Range
POSFEEDENABLE	TOGGLE	F	Positive Feedback IR Comp
POSFEEDRESISTANCE	QUANT	0	Positive Feedback Resistance (ohm)
ACHSELECT	IQUANT	4	Ach Select
SENSECABLEID	IQUANT	7	Sense Cable ID
PWRCABLEID	IQUANT	7	Power Cable ID
DCCALDATE	LABEL	12/18/2023	DC Calibration Date
ACCALDATE	LABEL	12/18/2023	AC Calibration Date
THERMOSELECT	IQUANT	1	Thermo Select
FRAMEWORKVERSION	LABEL	7.8.4	Framework Version
INSTRUMENTVERSION	LABEL	4.42	Instrument Version
CURVE1	TABLE
	Pt	T	Vf	Im	Vu	Sig	Ach	IERange	Over	Temp
	#	s	V vs. Ref.	A	V	V	V	#	bits	deg C
	0	0.2	3.93186E-001	1.18653E-011	0.00000E+000	3.93200E-001	9.98022E-004	4	..........a	-327.66
	3	0.8	3.63194E-001	-3.01934E-011	0.00000E+000	3.63200E-001	9.89522E-004	4	..........a	-327.66
	6	1.4	3.33161E-001	-4.25858E-011	0.00000E+000	3.33200E-001	9.79222E-004	4	..........a	-327.66
	9	2	3.03224E-001	-5.35053E-011	0.00000E+000	3.03200E-001	1.01062E-003	4	..........a	-327.66
	12	2.6	2.73123E-001	-6.20246E-011	0.00000E+000	2.73200E-001	1.00232E-003	4	..........a	-327.66
	15	3.2	2.43224E-001	-6.93929E-011	0.00000E+000	2.43200E-001	9.98122E-004	4	..........a	-327.66
	18	3.8	2.13223E-001	-7.27590E-011	0.00000E+000	2.13200E-001	1.00622E-003	4	..........a	-327.66
	21	4.4	1.83255E-001	-7.69972E-011	0.00000E+000	1.83200E-001	9.87822E-004	4	..........a	-327.66
	24	5	1.53163E-001	-8.01353E-011	0.00000E+000	1.53200E-001	1.00062E-003	4	..........a	-327.66
	27	5.6	1.23229E-001	-8.22144E-011	0.00000E+000	1.23200E-001	1.00522E-003	4	..........a	-327.66
	30	6.2	9.32960E-002	-8.43915E-011	0.00000E+000	9.32000E-002	9.61322E-004	4	..........a	-327.66
	33	6.8	6.32644E-002	-8.63885E-011	0.00000E+000	6.32000E-002	9.94022E-004	4	..........a	-327.66
	36	7.4	3.32531E-002	-8.85356E-011	0.00000E+000	3.32000E-002	1.00132E-003	4	..........a	-327.66
	39	8	3.22869E-003	-9.38078E-011	0.00000E+000	3.20000E-003	9.94422E-004	4	..........a	-327.66
	42	8.6	-2.68246E-002	-9.75389E-011	0.00000E+000	-2.68000E-002	9.72522E-004	4	..........a	-327.66
	45	9.2	-5.67330E-002	-1.03054E-010	0.00000E+000	-5.68000E-002	9.98522E-004	4	..........a	-327.66
	48	9.8	-8.68631E-002	-1.12682E-010	0.00000E+000	-8.68000E-002	1.00342E-003	4	..........a	-327.66
	51	10.4	-1.16786E-001	-1.23788E-010	0.00000E+000	-1.16800E-001	9.94422E-004	4	..........a	-327.66
	54	11	-1.46791E-001	-1.37904E-010	0.00000E+000	-1.46800E-001	9.64422E-004	4	..........a	-327.66
	57	11.6	-1.76772E-001	-1.56432E-010	0.00000E+000	-1.76800E-001	1.00302E-003	4	..........a	-327.66
	60	12.2	-2.06805E-001	-1.78923E-010	0.00000E+000	-2.06800E-001	9.92822E-004	4	..........a	-327.66
	63	12.8	-2.36821E-001	-2.09401E-010	0.00000E+000	-2.36800E-001	1.00532E-003	4	..........a	-327.66
	66	13.4	-2.66693E-001	-2.46986E-010	0.00000E+000	-2.66800E-001	9.87522E-004	4	..........a	-327.66
	69	14	-2.96733E-001	-2.93101E-010	0.00000E+000	-2.96800E-001	9.84622E-004	4	..........a	-327.66
	72	14.6	-3.26698E-001	-3.45522E-010	0.00000E+000	-3.26800E-001	1.00942E-003	4	..........a	-327.66
	75	15.2	-3.56776E-001	-4.10180E-010	0.00000E+000	-3.56800E-001	1.00702E-003	4	..........a	-327.66
	78	15.8	-3.86752E-001	-4.77700E-010	0.00000E+000	-3.86800E-001	9.88722E-004	4	..........a	-327.66
	81	16.4	-4.16638E-001	-5.54816E-010	0.00000E+000	-4.16800E-001	1.00782E-003	4	..........a	-327.66
	84	17	-4.46726E-001	-6.42630E-010	0.00000E+000	-4.46800E-001	1.01072E-003	4	..........a	-327.66
	87	17.6	-4.76686E-001	-7.43518E-010	0.00000E+000	-4.76800E-001	9.95922E-004	4	..........a	-327.66
	90	18.2	-5.06663E-001	-8.62998E-010	0.00000E+000	-5.06800E-001	1.00672E-003	4	..........a	-327.66
	93	18.8	-5.36654E-001	-1.00524E-009	0.00000E+000	-5.36800E-001	1.00942E-003	4	..........a	-327.66
	96	19.4	-5.66697E-001	-1.18679E-009	0.00000E+000	-5.66800E-001	1.00012E-003	4	..........a	-327.66
	99	20	-5.96727E-001	-1.41279E-009	0.00000E+000	-5.96800E-001	1.00292E-003	4	..........a	-327.66
	102	20.6	-5.66664E-001	-9.39438E-010	0.00000E+000	-5.66800E-001	1.00492E-003	4	..........a	-327.66
	105	21.2	-5.36674E-001	-6.63252E-010	0.00000E+000	-5.36800E-001	1.00932E-003	4	..........a	-327.66
	108	21.8	-5.06647E-001	-4.72621E-010	0.00000E+000	-5.06800E-001	1.00862E-003	4	..........a	-327.66
	111	22.4	-4.76649E-001	-3.31096E-010	0.00000E+000	-4.76800E-001	1.00212E-003	4	..........a	-327.66
	114	23	-4.46682E-001	-2.24592E-010	0.00000E+000	-4.46800E-001	9.79222E-004	4	..........a	-327.66
	117	23.6	-4.16763E-001	-1.39807E-010	0.00000E+000	-4.16800E-001	1.01922E-003	4	..........a	-327.66
	120	24.2	-3.86704E-001	-7.13589E-011	0.00000E+000	-3.86800E-001	1.01372E-003	4	..........a	-327.66
	123	24.8	-3.56893E-001	-1.53258E-011	0.00000E+000	-3.56800E-001	9.92122E-004	4	..........a	-327.66
	126	25.4	-3.26761E-001	2.97499E-011	0.00000E+000	-3.26800E-001	1.01192E-003	4	..........a	-327.66
	129	26	-2.96696E-001	6.83234E-011	0.00000E+000	-2.96800E-001	1.02022E-003	4	..........a	-327.66
	132	26.6	-2.66762E-001	9.75685E-011	0.00000E+000	-2.66800E-001	9.72822E-004	4	..........a	-327.66
	135	27.2	-2.36862E-001	1.19619E-010	0.00000E+000	-2.36800E-001	1.01192E-003	4	..........a	-327.66
	138	27.8	-2.06771E-001	1.33886E-010	0.00000E+000	-2.06800E-001	1.00722E-003	4	..........a	-327.66
	141	28.4	-1.76739E-001	1.40105E-010	0.00000E+000	-1.76800E-001	1.01502E-003	4	..........a	-327.66
	144	29	-1.46801E-001	1.43552E-010	0.00000E+000	-1.46800E-001	9.87322E-004	4	..........a	-327.66
	147	29.6	-1.16775E-001	1.45939E-010	0.00000E+000	-1.16800E-001	1.01322E-003	4	..........a	-327.66
	150	30.2	-8.67949E-002	1.42614E-010	0.00000E+000	-8.68000E-002	9.85722E-004	4	..........a	-327.66
	153	30.8	-5.67588E-002	1.40700E-010	0.00000E+000	-5.68000E-002	1.02852E-003	4	..........a	-327.66
	156	31.4	-2.67526E-002	1.38683E-010	0.00000E+000	-2.68000E-002	1.00782E-003	4	..........a	-327.66
	159	32	3.28094E-003	1.36988E-010	0.00000E+000	3.20000E-003	1.01082E-003	4	..........a	-327.66
	162	32.6	3.32551E-002	1.35914E-010	0.00000E+000	3.32000E-002	1.00652E-003	4	..........a	-327.66
	165	33.2	6.32926E-002	1.35901E-010	0.00000E+000	6.32000E-002	9.74722E-004	4	..........a	-327.66
	168	33.8	9.33754E-002	1.35807E-010	0.00000E+000	9.32000E-002	9.88522E-004	4	..........a	-327.66
	171	34.4	1.23257E-001	1.37624E-010	0.00000E+000	1.23200E-001	1.00132E-003	4	..........a	-327.66
	174	35	1.53190E-001	1.41306E-010	0.00000E+000	1.53200E-001	9.97522E-004	4	..........a	-327.66
	177	35.6	1.83263E-001	1.49403E-010	0.00000E+000	1.83200E-001	1.00102E-003	4	..........a	-327.66
	180	36.2	2.13197E-001	1.59488E-010	0.00000E+000	2.13200E-001	1.00832E-003	4	..........a	-327.66
	183	36.8	2.43299E-001	1.65316E-010	0.00000E+000	2.43200E-001	1.01062E-003	4	..........a	-327.66
	186	37.4	2.73146E-001	1.73644E-010	0.00000E+000	2.73200E-001	1.01102E-003	4	..........a	-327.66
	189	38	3.03234E-001	1.81769E-010	0.00000E+000	3.03200E-001	1.00732E-003	4	..........a	-327.66
	192	38.6	3.33154E-001	1.89161E-010	0.00000E+000	3.33200E-001	9.84422E-004	4	..........a	-327.66
	195	39.2	3.63223E-001	1.93601E-010	0.00000E+000	3.63200E-001	9.88922E-004	4	..........a	-327.66
	198	39.8	3.93199E-001	1.97937E-010	0.00000E+000	3.93200E-001	1.01692E-003	4	..........a	-327.66
	201	40.4	4.23216E-001	2.02590E-010	0.00000E+000	4.23200E-001	1.00432E-003	4	..........a	-327.66
	204	41	4.53171E-001	2.08850E-010	0.00000E+000	4.53200E-001	9.78922E-004	4	..........a	-327.66
	207	41.6	4.83191E-001	2.17488E-010	0.00000E+000	4.83200E-001	1.00782E-003	4	..........a	-327.66
	210	42.2	5.13176E-001	2.25913E-010	0.00000E+000	5.13200E-001	1.01652E-003	4	..........a	-327.66
	213	42.8	5.43193E-001	2.41241E-010	0.00000E+000	5.43200E-001	9.99422E-004	4	..........a	-327.66
	216	43.4	5.73124E-001	2.56472E-010	0.00000E+000	5.73200E-001	1.00062E-003	4	..........a	-327.66
	219	44	6.03171E-001	2.73896E-010	0.00000E+000	6.03200E-001	9.92722E-004	4	..........a	-327.66
	222	44.6	6.33066E-001	2.92844E-010	0.00000E+000	6.33200E-001	1.00932E-003	4	..........a	-327.66
	225	45.2	6.63203E-001	3.15147E-010	0.00000E+000	6.63200E-001	1.02082E-003	4	..........a	-327.66
	228	45.8	6.93086E-001	3.41234E-010	0.00000E+000	6.93200E-001	9.96722E-004	4	..........a	-327.66
	231	46.4	7.23027E-001	3.72284E-010	0.00000E+000	7.23200E-001	9.91522E-004	4	..........a	-327.66
	234	47	7.53102E-001	4.14110E-010	0.00000E+000	7.53200E-001	9.69522E-004	4	..........a	-327.66
	237	47.6	7.83244E-001	4.70169E-010	0.00000E+000	7.83200E-001	9.99222E-004	4	..........a	-327.66
	239	48	8.03113E-001	5.16803E-010	0.00000E+000	8.03200E-001	9.77222E-004	4	..........a	-327.66
CURVE2	TABLE
	Pt	T	Vf	Im	Vu	Sig	Ach	IERange	Over	Temp
	#	s	V vs. Ref.	A	V	V	V	#	bits	deg C
	240	48.2	7.89922E-001	3.47081E-010	0.00000E+000	7.90000E-001	1.00752E-003	4	..........a	-327.66
	243	48.8	7.59905E-001	1.61989E-010	0.00000E+000	7.60000E-001	9.81822E-004	4	..........a	-327.66
	246	49.4	7.29942E-001	7.62347E-011	0.00000E+000	7.30000E-001	1.00002E-003	4	..........a	-327.66
	249	50	6.99972E-001	2.79539E-011	0.00000E+000	7.00000E-001	1.00672E-003	4	..........a	-327.66
	252	50.6	6.69919E-001	-9.30156E-012	0.00000E+000	6.70000E-001	9.88622E-004	4	..........a	-327.66
	255	51.2	6.39930E-001	-3.71526E-011	0.00000E+000	6.40000E-001	9.93222E-004	4	..........a	-327.66
	258	51.8	6.09983E-001	-5.40443E-011	0.00000E+000	6.10000E-001	1.00212E-003	4	..........a	-327.66
	261	52.4	5.80020E-001	-6.88198E-011	0.00000E+000	5.80000E-001	9.79322E-004	4	..........a	-327.66
	264	53	5.49930E-001	-7.88152E-011	0.00000E+000	5.50000E-001	9.72522E-004	4	..........a	-327.66
	267	53.6	5.19965E-001	-8.76656E-011	0.00000E+000	5.20000E-001	1.00992E-003	4	..........a	-327.66
	270	54.2	4.89941E-001	-9.67929E-011	0.00000E+000	4.90000E-001	1.00212E-003	4	..........a	-327.66
	273	54.8	4.60020E-001	-1.02363E-010	0.00000E+000	4.60000E-001	1.00482E-003	4	..........a	-327.66
	276	55.4	4.29918E-001	-1.09122E-010	0.00000E+000	4.30000E-001	9.86422E-004	4	..........a	-327.66
	279	56	4.00065E-001	-1.14773E-010	0.00000E+000	4.00000E-001	1.00622E-003	4	..........a	-327.66
	282	56.6	3.70009E-001	-1.20632E-010	0.00000E+000	3.70000E-001	1.02212E-003	4	..........a	-327.66
	285	57.2	3.40029E-001	-1.26560E-010	0.00000E+000	3.40000E-001	1.00422E-003	4	..........a	-327.66
	288	57.8	3.09968E-001	-1.30767E-010	0.00000E+000	3.10000E-001	9.84022E-004	4	..........a	-327.66
	291	58.4	2.79959E-001	-1.31825E-010	0.00000E+000	2.80000E-001	1.01492E-003	4	..........a	-327.66
	294	59	2.50016E-001	-1.33458E-010	0.00000E+000	2.50000E-001	9.93422E-004	4	..........a	-327.66
	297	59.6	2.20012E-001	-1.32712E-010	0.00000E+000	2.20000E-001	1.01942E-003	4	..........a	-327.66
	300	60.2	1.90013E-001	-1.30918E-010	0.00000E+000	1.90000E-001	9.97722E-004	4	..........a	-327.66
	303	60.8	1.60024E-001	-1.27964E-010	0.00000E+000	1.60000E-001	1.01422E-003	4	..........a	-327.66
	306	61.4	1.30047E-001	-1.27287E-010	0.00000E+000	1.30000E-001	9.81122E-004	4	..........a	-327.66
	309	62	1.00008E-001	-1.26565E-010	0.00000E+000	1.00000E-001	1.00942E-003	4	..........a	-327.66
	312	62.6	6.99321E-002	-1.27202E-010	0.00000E+000	7.00000E-002	1.00452E-003	4	..........a	-327.66
	315	63.2	3.99413E-002	-1.31854E-010	0.00000E+000	4.00000E-002	9.86422E-004	4	..........a	-327.66
	318	63.8	1.00757E-002	-1.36231E-010	0.00000E+000	1.00000E-002	1.00572E-003	4	..........a	-327.66
	321	64.4	-1.99682E-002	-1.44288E-010	0.00000E+000	-2.00000E-002	1.00302E-003	4	..........a	-327.66
	324	65	-4.99957E-002	-1.53508E-010	0.00000E+000	-5.00000E-002	1.00982E-003	4	..........a	-327.66
	327	65.6	-7.99584E-002	-1.66499E-010	0.00000E+000	-8.00000E-002	9.91822E-004	4	..........a	-327.66
	330	66.2	-1.09922E-001	-1.81781E-010	0.00000E+000	-1.10000E-001	9.92322E-004	4	..........a	-327.66
	333	66.8	-1.39978E-001	-1.99876E-010	0.00000E+000	-1.40000E-001	1.00662E-003	4	..........a	-327.66
	336	67.4	-1.69986E-001	-2.21847E-010	0.00000E+000	-1.70000E-001	1.01972E-003	4	..........a	-327.66
	339	68	-1.99951E-001	-2.47875E-010	0.00000E+000	-2.00000E-001	1.00852E-003	4	..........a	-327.66
	342	68.6	-2.29933E-001	-2.85889E-010	0.00000E+000	-2.30000E-001	1.01252E-003	4	..........a	-327.66
	345	69.2	-2.59859E-001	-3.20636E-010	0.00000E+000	-2.60000E-001	9.89622E-004	4	..........a	-327.66
	348	69.8	-2.89926E-001	-3.71404E-010	0.00000E+000	-2.90000E-001	1.00112E-003	4	..........a	-327.66
	351	70.4	-3.19874E-001	-4.27653E-010	0.00000E+000	-3.20000E-001	9.96322E-004	4	..........a	-327.66
	354	71	-3.49913E-001	-4.85843E-010	0.00000E+000	-3.50000E-001	1.00362E-003	4	..........a	-327.66
	357	71.6	-3.79876E-001	-5.61029E-010	0.00000E+000	-3.80000E-001	9.84722E-004	4	..........a	-327.66
	360	72.2	-4.09938E-001	-6.38225E-010	0.00000E+000	-4.10000E-001	9.97422E-004	4	..........a	-327.66
[...]
	947	189.6	-5.19898E-001	-7.08834E-010	0.00000E+000	-5.20000E-001	9.84022E-004	4	..........a	-327.66
	950	190.2	-4.89845E-001	-5.50232E-010	0.00000E+000	-4.90000E-001	1.00642E-003	4	..........a	-327.66
	953	190.8	-4.59853E-001	-4.20270E-010	0.00000E+000	-4.60000E-001	1.01562E-003	4	..........a	-327.66
	956	191.4	-4.29864E-001	-3.14772E-010	0.00000E+000	-4.30000E-001	9.97022E-004	4	..........a	-327.66
	959	192	-3.99909E-001	-2.19722E-010	0.00000E+000	-4.00000E-001	1.00262E-003	4	..........a	-327.66
	962	192.6	-3.69963E-001	-1.38026E-010	0.00000E+000	-3.70000E-001	9.82522E-004	4	..........a	-327.66
	965	193.2	-3.39946E-001	-6.68738E-011	0.00000E+000	-3.40000E-001	1.02562E-003	4	..........a	-327.66
	968	193.8	-3.09916E-001	-5.93743E-012	0.00000E+000	-3.10000E-001	9.83922E-004	4	..........a	-327.66
	971	194.4	-2.79903E-001	4.74186E-011	0.00000E+000	-2.80000E-001	1.00062E-003	4	..........a	-327.66
	974	195	-2.49929E-001	8.93972E-011	0.00000E+000	-2.50000E-001	9.87922E-004	4	..........a	-327.66
	977	195.6	-2.19894E-001	1.22390E-010	0.00000E+000	-2.20000E-001	1.00962E-003	4	..........a	-327.66
	980	196.2	-1.90102E-001	1.43694E-010	0.00000E+000	-1.90000E-001	9.84022E-004	4	..........a	-327.66
	983	196.8	-1.59966E-001	1.53949E-010	0.00000E+000	-1.60000E-001	1.00172E-003	4	..........a	-327.66
	986	197.4	-1.30062E-001	1.61529E-010	0.00000E+000	-1.30000E-001	9.84022E-004	4	..........a	-327.66
	989	198	-9.99649E-002	1.59264E-010	0.00000E+000	-1.00000E-001	1.00522E-003	4	..........a	-327.66
	992	198.6	-6.99494E-002	1.58412E-010	0.00000E+000	-7.00000E-002	9.78122E-004	4	..........a	-327.66
	995	199.2	-3.99275E-002	1.59857E-010	0.00000E+000	-4.00000E-002	9.99222E-004	4	..........a	-327.66
	998	199.8	-9.96326E-003	1.54199E-010	0.00000E+000	-1.00000E-002	9.69922E-004	4	..........a	-327.66
	1001	200.4	2.00980E-002	1.56322E-010	0.00000E+000	2.00000E-002	9.81922E-004	4	..........a	-327.66
	1004	201	5.00204E-002	1.52882E-010	0.00000E+000	5.00000E-002	1.00202E-003	4	..........a	-327.66
	1007	201.6	8.00647E-002	1.51389E-010	0.00000E+000	8.00000E-002	1.01812E-003	4	..........a	-327.66
	1010	202.2	1.10028E-001	1.58273E-010	0.00000E+000	1.10000E-001	9.84322E-004	4	..........a	-327.66
	1013	202.8	1.40089E-001	1.61556E-010	0.00000E+000	1.40000E-001	1.01462E-003	4	..........a	-327.66
	1016	203.4	1.70119E-001	1.65338E-010	0.00000E+000	1.70000E-001	9.88422E-004	4	..........a	-327.66
	1019	204	2.00051E-001	1.76111E-010	0.00000E+000	2.00000E-001	9.96922E-004	4	..........a	-327.66
	1022	204.6	2.29902E-001	1.91178E-010	0.00000E+000	2.30000E-001	1.00332E-003	4	..........a	-327.66
	1025	205.2	2.60038E-001	1.98293E-010	0.00000E+000	2.60000E-001	1.02092E-003	4	..........a	-327.66
	1028	205.8	2.90008E-001	2.07664E-010	0.00000E+000	2.90000E-001	9.82322E-004	4	..........a	-327.66
	1031	206.4	3.20014E-001	2.13527E-010	0.00000E+000	3.20000E-001	9.97822E-004	4	..........a	-327.66
	1034	207	3.50001E-001	2.16735E-010	0.00000E+000	3.50000E-001	9.72122E-004	4	..........a	-327.66
	1037	207.6	3.80037E-001	2.17956E-010	0.00000E+000	3.80000E-001	9.98022E-004	4	..........a	-327.66
	1040	208.2	4.09967E-001	2.16486E-010	0.00000E+000	4.10000E-001	9.91822E-004	4	..........a	-327.66
	1043	208.8	4.39984E-001	2.16276E-010	0.00000E+000	4.40000E-001	1.00732E-003	4	..........a	-327.66
	1046	209.4	4.69985E-001	2.16342E-010	0.00000E+000	4.70000E-001	1.00722E-003	4	..........a	-327.66
	1049	210	5.00050E-001	2.16998E-010	0.00000E+000	5.00000E-001	9.99522E-004	4	..........a	-327.66
	1052	210.6	5.30011E-001	2.18095E-010	0.00000E+000	5.30000E-001	9.80022E-004	4	..........a	-327.66
	1055	211.2	5.59983E-001	2.22007E-010	0.00000E+000	5.60000E-001	1.01492E-003	4	..........a	-327.66
	1058	211.8	5.89964E-001	2.31231E-010	0.00000E+000	5.90000E-001	1.02772E-003	4	..........a	-327.66
	1061	212.4	6.19981E-001	2.44105E-010	0.00000E+000	6.20000E-001	9.84622E-004	4	..........a	-327.66
	1064	213	6.49908E-001	2.59029E-010	0.00000E+000	6.50000E-001	9.99922E-004	4	..........a	-327.66
	1067	213.6	6.79970E-001	2.79869E-010	0.00000E+000	6.80000E-001	9.97522E-004	4	..........a	-327.66
	1070	214.2	7.09866E-001	3.06964E-010	0.00000E+000	7.10000E-001	9.79822E-004	4	..........a	-327.66
	1073	214.8	7.40004E-001	3.45222E-010	0.00000E+000	7.40000E-001	9.89522E-004	4	..........a	-327.66
	1076	215.4	7.69895E-001	3.96585E-010	0.00000E+000	7.70000E-001	9.96822E-004	4	..........a	-327.66
	1079	216	7.99960E-001	4.70204E-010	0.00000E+000	8.00000E-001	1.00612E-003	4	..........a	-327.66
CURVE5	TABLE
	Pt	T	Vf	Im	Vu	Sig	Ach	IERange	Over	Temp
	#	s	V vs. Ref.	A	V	V	V	#	bits	deg C
	1080	216.2	7.89833E-001	3.21327E-010	0.00000E+000	7.90000E-001	9.90522E-004	4	..........a	-327.66
	1081	216.4	7.79991E-001	2.33224E-010	0.00000E+000	7.80000E-001	1.01692E-003	4	..........a	-327.66
	1082	216.6	7.69919E-001	1.72165E-010	0.00000E+000	7.70000E-001	9.92022E-004	4	..........a	-327.66
	1083	216.8	7.59961E-001	1.28684E-010	0.00000E+000	7.60000E-001	9.88922E-004	4	..........a	-327.66
	1084	217	7.49930E-001	9.19603E-011	0.00000E+000	7.50000E-001	9.87522E-004	4	..........a	-327.66
	1085	217.2	7.39990E-001	6.52783E-011	0.00000E+000	7.40000E-001	1.00522E-003	4	..........a	-327.66
	1086	217.4	7.29954E-001	4.37375E-011	0.00000E+000	7.30000E-001	9.70122E-004	4	..........a	-327.66
	1087	217.6	7.19963E-001	2.60628E-011	0.00000E+000	7.20000E-001	1.00062E-003	4	..........a	-327.66
	1088	217.8	7.09903E-001	1.10802E-011	0.00000E+000	7.10000E-001	9.89722E-004	4	..........a	-327.66
	1089	218	6.99958E-001	-2.14728E-012	0.00000E+000	7.00000E-001	9.81922E-004	4	..........a	-327.66
	1090	218.2	6.89902E-001	-1.06116E-011	0.00000E+000	6.90000E-001	1.00082E-003	4	..........a	-327.66
	1091	218.4	6.79802E-001	-2.08080E-011	0.00000E+000	6.80000E-001	9.98522E-004	4	..........a	-327.66
	1092	218.6	6.69911E-001	-2.94633E-011	0.00000E+000	6.70000E-001	1.00292E-003	4	..........a	-327.66
	1093	218.8	6.60007E-001	-3.60336E-011	0.00000E+000	6.60000E-001	1.00532E-003	4	..........a	-327.66
	1094	219	6.49925E-001	-4.03588E-011	0.00000E+000	6.50000E-001	9.86022E-004	4	..........a	-327.66
	1095	219.2	6.39942E-001	-4.56110E-011	0.00000E+000	6.40000E-001	9.95922E-004	4	..........a	-327.66
	1096	219.4	6.29886E-001	-5.05581E-011	0.00000E+000	6.30000E-001	1.00212E-003	4	..........a	-327.66
	1097	219.6	6.19996E-001	-5.45043E-011	0.00000E+000	6.20000E-001	1.01472E-003	4	..........a	-327.66
	1098	219.8	6.09964E-001	-5.92095E-011	0.00000E+000	6.10000E-001	9.97822E-004	4	..........a	-327.66
	1099	220	5.99944E-001	-6.33396E-011	0.00000E+000	6.00000E-001	9.94622E-004	4	..........a	-327.66
	1100	220.2	5.89943E-001	-6.70948E-011	0.00000E+000	5.90000E-001	1.00072E-003	4	..........a	-327.66
	1101	220.4	5.80028E-001	-6.95769E-011	0.00000E+000	5.80000E-001	9.97022E-004	4	..........a	-327.66
	1102	220.6	5.69964E-001	-7.25620E-011	0.00000E+000	5.70000E-001	1.00382E-003	4	..........a	-327.66
	1103	220.8	5.59967E-001	-7.45521E-011	0.00000E+000	5.60000E-001	1.00122E-003	4	..........a	-327.66
	1104	221	5.49952E-001	-7.77812E-011	0.00000E+000	5.50000E-001	9.85522E-004	4	..........a	-327.66
	1105	221.2	5.40015E-001	-8.09753E-011	0.00000E+000	5.40000E-001	1.00892E-003	4	..........a	-327.66
	1106	221.4	5.29967E-001	-8.39524E-011	0.00000E+000	5.30000E-001	1.00492E-003	4	..........a	-327.66
	1107	221.6	5.19971E-001	-8.64575E-011	0.00000E+000	5.20000E-001	9.88122E-004	4	..........a	-327.66
	1108	221.8	5.09930E-001	-8.92726E-011	0.00000E+000	5.10000E-001	9.95622E-004	4	..........a	-327.66
	1109	222	5.00063E-001	-9.14527E-011	0.00000E+000	5.00000E-001	1.00812E-003	4	..........a	-327.66
	1110	222.2	4.89942E-001	-9.48048E-011	0.00000E+000	4.90000E-001	9.94122E-004	4	..........a	-327.66
	1111	222.4	4.79975E-001	-9.81470E-011	0.00000E+000	4.80000E-001	1.01452E-003	4	..........a	-327.66
	1112	222.6	4.69953E-001	-9.95890E-011	0.00000E+000	4.70000E-001	1.00952E-003	4	..........a	-327.66
	1113	222.8	4.60016E-001	-1.02334E-010	0.00000E+000	4.60000E-001	9.81522E-004	4	..........a	-327.66
	1114	223	4.49959E-001	-1.04793E-010	0.00000E+000	4.50000E-001	9.95222E-004	4	..........a	-327.66
	1115	223.2	4.39977E-001	-1.07392E-010	0.00000E+000	4.40000E-001	1.01232E-003	4	..........a	-327.66
	1116	223.4	4.29940E-001	-1.10488E-010	0.00000E+000	4.30000E-001	9.88022E-004	4	..........a	-327.66
	1117	223.6	4.20013E-001	-1.13138E-010	0.00000E+000	4.20000E-001	9.68322E-004	4	..........a	-327.66
	1118	223.8	4.09950E-001	-1.16279E-010	0.00000E+000	4.10000E-001	9.97222E-004	4	..........a	-327.66
	1119	224	4.00050E-001	-1.18483E-010	0.00000E+000	4.00000E-001	9.99322E-004	4	..........a	-327.66
	1120	224.2	3.89976E-001	-1.20733E-010	0.00000E+000	3.90000E-001	1.00082E-003	4	..........a	-327.66