File: data/raw/batch_data/20240424_ZZC_GM0016_HL03_E14_CV50.DTA
EXPLAIN
TAG	CV
TITLE	LABEL	Cyclic Voltammetry	Test &Identifier
DATE	LABEL	4/24/2024	Date
TIME	LABEL	19:46:20	Time
NOTES	NOTES	1	&Notes...

PSTAT	PSTAT	REF600P-43058	Potentiostat
VINIT	POTEN	0.00000E+000	T	Initial &E (V)
VLIMIT1	POTEN	-6.00000E-001	F	Scan Limit &1 (V)
VLIMIT2	POTEN	8.00000E-001	F	Scan Limit &2 (V)
VFINAL	POTEN	0.00000E+000	T	Final &E (V)
SCANRATE	QUANT	4.99999E+001	&Scan Rate (mV/s)
STEPSIZE	QUANT	1.00000E+001	St&ep Size (mV)
CYCLES	IQUANT	4	C&ycles (#)
IMODE	SELECTOR	0	I/E Range &Mode
IRANGE	QUANT	1.00000E-005	&Max Current (mA)
AREA	QUANT	1.00000E+000	Electrode &Area (cm^2)
ELECTRODETYPE	SELECTOR	0	Electrode Type
STRIPPING	TOGGLE	F	Used for Stripping
POLARITY	TOGGLE	F	Signal Polarity
CONDIT	TWOPARAM	F	1.50000E+001	0.00000E+000	Conditionin&g	Time(s)	E(V)
DELAY	TWOPARAM	T	1.00000E+001	0.00000E+000	Init. De&lay	Time(s)	Stab.(mV/s)
EQDELAY	QUANT	1.00000E+001	Equil. &Time (s)
IRCOMP	SELECTOR	0	IRCom&p
PFCOR	QUANT	5.00000E+001	PF Corr. (ohm)
SAMPLINGMODE	SELECTOR	1	Sampling &Mode
OCVCURVE	TABLE	39
	Pt	T	Vf	Vm	Ach	Over	Temp
	#	s	V vs. Ref.	V	V	bits	deg C
	0	0.258333	-1.33549E-002	-1.33549E-002	2.36192E-004	..........a	-327.66
	1	0.516667	-1.33556E-002	-1.33888E-002	2.33926E-004	..........a	-327.66
	2	0.775	-1.33596E-002	-1.34255E-002	2.46459E-004	..........a	-327.66
	3	1.03333	-1.33714E-002	-1.34620E-002	2.34592E-004	..........a	-327.66
	4	1.29167	-1.33932E-002	-1.34969E-002	2.35859E-004	..........a	-327.66
	5	1.55	-1.34232E-002	-1.35337E-002	2.55059E-004	..........a	-327.66
	6	1.80833	-1.34577E-002	-1.35689E-002	2.55592E-004	..........a	-327.66
	7	2.06667	-1.34937E-002	-1.36009E-002	2.40926E-004	..........a	-327.66
	8	2.325	-1.35296E-002	-1.36330E-002	2.44126E-004	..........a	-327.66
	9	2.58333	-1.35644E-002	-1.36668E-002	2.39992E-004	..........a	-327.66
	10	2.84167	-1.35981E-002	-1.37015E-002	2.41926E-004	..........a	-327.66
	11	3.1	-1.36314E-002	-1.37322E-002	2.55259E-004	..........a	-327.66
	12	3.35833	-1.36645E-002	-1.37658E-002	2.39859E-004	..........a	-327.66
	13	3.61667	-1.36975E-002	-1.37971E-002	2.48792E-004	..........a	-327.66
	14	3.875	-1.37302E-002	-1.38307E-002	2.36392E-004	..........a	-327.66
	15	4.13333	-1.37628E-002	-1.38624E-002	2.41526E-004	..........a	-327.66
	16	4.39167	-1.37953E-002	-1.38962E-002	2.36126E-004	..........a	-327.66
	17	4.65	-1.38278E-002	-1.39272E-002	2.49526E-004	..........a	-327.66
	18	4.90833	-1.38603E-002	-1.39584E-002	2.51792E-004	..........a	-327.66
	19	5.16667	-1.38925E-002	-1.39873E-002	2.32926E-004	..........a	-327.66
	20	5.425	-1.39242E-002	-1.40179E-002	2.45126E-004	..........a	-327.66
	21	5.68333	-1.39551E-002	-1.40507E-002	2.42326E-004	..........a	-327.66
	22	5.94167	-1.39857E-002	-1.40789E-002	2.54992E-004	..........a	-327.66
	23	6.2	-1.40163E-002	-1.41085E-002	2.40992E-004	..........a	-327.66
	24	6.45833	-1.40467E-002	-1.41389E-002	2.40392E-004	..........a	-327.66
	25	6.71667	-1.40767E-002	-1.41662E-002	2.51926E-004	..........a	-327.66
	26	6.975	-1.41063E-002	-1.41950E-002	2.44592E-004	..........a	-327.66
	27	7.23333	-1.41355E-002	-1.42250E-002	2.33259E-004	..........a	-327.66
	28	7.49167	-1.41644E-002	-1.42527E-002	2.50726E-004	..........a	-327.66
	29	7.75	-1.41932E-002	-1.42799E-002	2.52726E-004	..........a	-327.66
	30	8.00833	-1.42218E-002	-1.43079E-002	2.46859E-004	..........a	-327.66
	31	8.26667	-1.42501E-002	-1.43357E-002	2.48659E-004	..........a	-327.66
	32	8.525	-1.42780E-002	-1.43624E-002	2.39126E-004	..........a	-327.66
	33	8.78333	-1.43057E-002	-1.43923E-002	2.30592E-004	..........a	-327.66
	34	9.04167	-1.43334E-002	-1.44198E-002	2.40459E-004	..........a	-327.66
	35	9.3	-1.43613E-002	-1.44455E-002	2.51259E-004	..........a	-327.66
	36	9.5583	-1.43891E-002	-1.44711E-002	2.41926E-004	..........a	-327.66
	37	9.8167	-1.44164E-002	-1.44949E-002	2.47259E-004	..........a	-327.66
	38	10.075	-1.44429E-002	-1.45216E-002	2.46192E-004	..........a	-327.66
EOC	QUANT	-0.0144429	Open Circuit (V)
PSTATMODEL	IQUANT	7	Pstat Model
PSTATSECTION	LABEL	REF600P-43058	Pstat Section
PSTATSERIALNO	LABEL	43058	Pstat Serial Number
CTRLMODE	IQUANT	1	Control Mode
ELECTROMETER	IQUANT	0	RE=0 or CS=1
IESTAB	IQUANT	2	I/E Stability
CASPEED	IQUANT	4	Control Amp Speed
CONVENTION	IQUANT	1	Current Convention
ICHRANGE	IQUANT	2	Ich Range
ICHRANGEMODE	TOGGLE	F	Ich Auto Range
ICHOFFSETENABLE	TOGGLE	F	Ich Offset Enable
ICHOFFSET	QUANT	0	Ich Offset (V)
ICHFILTER	IQUANT	2	Ich Filter
VCHRANGE	IQUANT	2	Vch Range
VCHRANGEMODE	TOGGLE	F	Vch Auto Range
VCHOFFSETENABLE	TOGGLE	F	Vch Offset Enable
VCHOFFSET	QUANT	0	Vch Offset (V)
VCHFILTER	IQUANT	2	Vch Filter
ACHRANGE	IQUANT	2	Ach Range
ACHOFFSETENABLE	TOGGLE	F	Ach Offset Enable
ACHOFFSET	QUANT	0	Ach Offset (V)
ACHFILTER	IQUANT	1	Ach Filter
IERANGELOWERLIMIT	IQUANT	1	I/E Range Lower Limit
IERANGEMODE	TOGGLE	T	I/E AutoRange
IERANGE	IQUANT	4	I/E Range
POSFEEDENABLE	TOGGLE	F	Positive Feedback IR Comp
POSFEEDRESISTANCE	QUANT	0	Positive Feedback Resistance (ohm)
ACHSELECT	IQUANT	4	Ach Select
SENSECABLEID	IQUANT	7	Sense Cable ID
PWRCABLEID	IQUANT	7	Power Cable ID
DCCALDATE	LABEL	3/22/2024	DC Calibration Date
ACCALDATE	LABEL	3/22/2024	AC Calibration Date
THERMOSELECT	IQUANT	1	Thermo Select
FRAMEWORKVERSION	LABEL	7.8.4	Framework Version
INSTRUMENTVERSION	LABEL	4.42	Instrument Version
CURVE1	TABLE
	Pt	T	Vf	Im	Vu	Sig	Ach	IERange	Over	Temp
	#	s	V vs. Ref.	A	V	V	V	#	bits	deg C
	0	0.2	-1.43899E-002	4.12792E-010	0.00000E+000	-1.44500E-002	1.00329E-003	5	..........a	-327.66
	2	0.6	-3.43867E-002	-5.81443E-009	0.00000E+000	-3.44500E-002	9.92992E-004	5	..........a	-327.66
	4	1	-5.44056E-002	-9.99896E-009	0.00000E+000	-5.44500E-002	9.92392E-004	5	..........a	-327.66
	6	1.4	-7.43637E-002	-1.37749E-008	0.00000E+000	-7.44500E-002	1.00559E-003	5	..........a	-327.66
	8	1.8	-9.43967E-002	-1.74045E-008	0.00000E+000	-9.44500E-002	1.00209E-003	5	..........a	-327.66
	10	2.2	-1.14374E-001	-2.11428E-008	0.00000E+000	-1.14450E-001	1.00669E-003	5	..........a	-327.66
	12	2.6	-1.34407E-001	-2.49086E-008	0.00000E+000	-1.34450E-001	1.00379E-003	5	..........a	-327.66
	14	3	-1.54357E-001	-2.88122E-008	0.00000E+000	-1.54450E-001	1.01729E-003	5	..........a	-327.66
	16	3.4	-1.74415E-001	-3.27392E-008	0.00000E+000	-1.74450E-001	1.00589E-003	5	..........a	-327.66
	18	3.8	-1.94357E-001	-3.67375E-008	0.00000E+000	-1.94450E-001	9.92392E-004	5	..........a	-327.66
	20	4.2	-2.14352E-001	-4.07326E-008	0.00000E+000	-2.14450E-001	1.02349E-003	5	..........a	-327.66
	22	4.6	-2.34312E-001	-4.47166E-008	0.00000E+000	-2.34450E-001	1.00169E-003	5	..........a	-327.66
	24	5	-2.54365E-001	-4.86836E-008	0.00000E+000	-2.54450E-001	1.02219E-003	5	..........a	-327.66
	26	5.4	-2.74288E-001	-5.26391E-008	0.00000E+000	-2.74450E-001	9.93492E-004	5	..........a	-327.66
	28	5.8	-2.94305E-001	-5.65916E-008	0.00000E+000	-2.94450E-001	1.00409E-003	5	..........a	-327.66
	30	6.2	-3.14271E-001	-6.05780E-008	0.00000E+000	-3.14450E-001	1.00279E-003	5	..........a	-327.66
	32	6.6	-3.34364E-001	-6.45494E-008	0.00000E+000	-3.34450E-001	1.00509E-003	5	..........a	-327.66
	34	7	-3.54302E-001	-6.85508E-008	0.00000E+000	-3.54450E-001	9.96392E-004	5	..........a	-327.66
	36	7.4	-3.74292E-001	-7.25704E-008	0.00000E+000	-3.74450E-001	1.00739E-003	5	..........a	-327.66
	38	7.8	-3.94258E-001	-7.66132E-008	0.00000E+000	-3.94450E-001	1.00509E-003	5	..........a	-327.66
	40	8.2	-4.14309E-001	-8.06423E-008	0.00000E+000	-4.14450E-001	1.00699E-003	5	..........a	-327.66
	42	8.6	-4.34255E-001	-8.46792E-008	0.00000E+000	-4.34450E-001	1.01219E-003	5	..........a	-327.66
	44	9	-4.54280E-001	-8.85928E-008	0.00000E+000	-4.54450E-001	1.00609E-003	5	..........a	-327.66
	46	9.4	-4.74242E-001	-9.25666E-008	0.00000E+000	-4.74450E-001	9.92392E-004	5	..........a	-327.66
	48	9.8	-4.94264E-001	-9.63746E-008	0.00000E+000	-4.94450E-001	9.97792E-004	5	..........a	-327.66
	50	10.2	-5.14203E-001	-1.00206E-007	0.00000E+000	-5.14450E-001	9.94092E-004	5	..........a	-327.66
	52	10.6	-5.34299E-001	-1.04101E-007	0.00000E+000	-5.34450E-001	9.94492E-004	5	..........a	-327.66
	54	11	-5.54237E-001	-1.08085E-007	0.00000E+000	-5.54450E-001	1.00249E-003	5	..........a	-327.66
	56	11.4	-5.74282E-001	-1.12085E-007	0.00000E+000	-5.74450E-001	1.00089E-003	5	..........a	-327.66
	58	11.8	-5.94173E-001	-1.16217E-007	0.00000E+000	-5.94450E-001	1.00789E-003	5	..........a	-327.66
	60	12.2	-5.94190E-001	-1.05608E-007	0.00000E+000	-5.94450E-001	9.89492E-004	5	..........a	-327.66
	62	12.6	-5.74236E-001	-9.02971E-008	0.00000E+000	-5.74450E-001	9.82092E-004	5	..........a	-327.66
	64	13	-5.54263E-001	-7.96594E-008	0.00000E+000	-5.54450E-001	1.00319E-003	5	..........a	-327.66
	66	13.4	-5.34310E-001	-7.10800E-008	0.00000E+000	-5.34450E-001	1.01039E-003	5	..........a	-327.66
	68	13.8	-5.14238E-001	-6.38248E-008	0.00000E+000	-5.14450E-001	1.00239E-003	5	..........a	-327.66
	70	14.2	-4.94315E-001	-5.73974E-008	0.00000E+000	-4.94450E-001	1.01819E-003	5	..........a	-327.66
	72	14.6	-4.74262E-001	-5.16354E-008	0.00000E+000	-4.74450E-001	9.95392E-004	5	..........a	-327.66
	74	15	-4.54305E-001	-4.63389E-008	0.00000E+000	-4.54450E-001	1.01389E-003	5	..........a	-327.66
	76	15.4	-4.34294E-001	-4.14031E-008	0.00000E+000	-4.34450E-001	9.94892E-004	5	..........a	-327.66
	78	15.8	-4.14331E-001	-3.66910E-008	0.00000E+000	-4.14450E-001	1.00939E-003	5	..........a	-327.66
	80	16.2	-3.94274E-001	-3.23067E-008	0.00000E+000	-3.94450E-001	9.82392E-004	5	..........a	-327.66
	82	16.6	-3.74358E-001	-2.81457E-008	0.00000E+000	-3.74450E-001	1.03039E-003	5	..........a	-327.66
	84	17	-3.54313E-001	-2.41640E-008	0.00000E+000	-3.54450E-001	9.90792E-004	5	..........a	-327.66
	86	17.4	-3.34399E-001	-2.03700E-008	0.00000E+000	-3.34450E-001	1.00509E-003	5	..........a	-327.66
	88	17.8	-3.14301E-001	-1.67185E-008	0.00000E+000	-3.14450E-001	9.89992E-004	5	..........a	-327.66
	90	18.2	-2.94318E-001	-1.32220E-008	0.00000E+000	-2.94450E-001	1.01319E-003	5	..........a	-327.66
	92	18.6	-2.74295E-001	-9.86425E-009	0.00000E+000	-2.74450E-001	9.99492E-004	5	..........a	-327.66
	94	19	-2.54394E-001	-6.62289E-009	0.00000E+000	-2.54450E-001	1.01459E-003	5	..........a	-327.66
	96	19.4	-2.34330E-001	-3.45213E-009	0.00000E+000	-2.34450E-001	9.92292E-004	5	..........a	-327.66
	98	19.8	-2.14350E-001	-4.46720E-010	0.00000E+000	-2.14450E-001	9.93792E-004	5	..........a	-327.66
	100	20.2	-1.94400E-001	2.51908E-009	0.00000E+000	-1.94450E-001	9.96292E-004	5	..........a	-327.66
	102	20.6	-1.74426E-001	5.39609E-009	0.00000E+000	-1.74450E-001	1.01319E-003	5	..........a	-327.66
	104	21	-1.54409E-001	8.20902E-009	0.00000E+000	-1.54450E-001	1.00139E-003	5	..........a	-327.66
	106	21.4	-1.34453E-001	1.09321E-008	0.00000E+000	-1.34450E-001	1.01329E-003	5	..........a	-327.66
	108	21.8	-1.14388E-001	1.35988E-008	0.00000E+000	-1.14450E-001	1.00629E-003	5	..........a	-327.66
	110	22.2	-9.43961E-002	1.62305E-008	0.00000E+000	-9.44500E-002	1.00449E-003	5	..........a	-327.66
	112	22.6	-7.44038E-002	1.88351E-008	0.00000E+000	-7.44500E-002	9.92692E-004	5	..........a	-327.66
	114	23	-5.44138E-002	2.13750E-008	0.00000E+000	-5.44500E-002	1.02999E-003	5	..........a	-327.66
	116	23.4	-3.43861E-002	2.39380E-008	0.00000E+000	-3.44500E-002	9.89892E-004	5	..........a	-327.66
	118	23.8	-1.44014E-002	2.64540E-008	0.00000E+000	-1.44500E-002	1.00049E-003	5	..........a	-327.66
	120	24.2	5.61349E-003	2.90416E-008	0.00000E+000	5.55000E-003	1.00199E-003	5	..........a	-327.66
	122	24.6	2.55521E-002	3.16249E-008	0.00000E+000	2.55500E-002	1.01679E-003	5	..........a	-327.66
	124	25	4.56585E-002	3.42010E-008	0.00000E+000	4.55500E-002	1.00779E-003	5	..........a	-327.66
	126	25.4	6.55485E-002	3.68347E-008	0.00000E+000	6.55500E-002	1.00929E-003	5	..........a	-327.66
	128	25.8	8.55969E-002	3.95153E-008	0.00000E+000	8.55500E-002	1.00209E-003	5	..........a	-327.66
	130	26.2	1.05548E-001	4.22992E-008	0.00000E+000	1.05550E-001	1.02149E-003	5	..........a	-327.66
	132	26.6	1.25641E-001	4.51269E-008	0.00000E+000	1.25550E-001	1.00669E-003	5	..........a	-327.66
	134	27	1.45554E-001	4.80244E-008	0.00000E+000	1.45550E-001	1.01289E-003	5	..........a	-327.66
	136	27.4	1.65601E-001	5.09693E-008	0.00000E+000	1.65550E-001	1.00059E-003	5	..........a	-327.66
	138	27.8	1.85530E-001	5.39661E-008	0.00000E+000	1.85550E-001	1.02039E-003	5	..........a	-327.66
	140	28.2	2.05523E-001	5.70381E-008	0.00000E+000	2.05550E-001	1.00289E-003	5	..........a	-327.66
	142	28.6	2.25518E-001	6.05885E-008	0.00000E+000	2.25550E-001	9.94992E-004	5	..........a	-327.66
	144	29	2.45461E-001	6.40486E-008	0.00000E+000	2.45550E-001	9.84592E-004	5	..........a	-327.66
	146	29.4	2.65536E-001	6.70238E-008	0.00000E+000	2.65550E-001	9.99992E-004	5	..........a	-327.66
	148	29.8	2.85529E-001	7.00855E-008	0.00000E+000	2.85550E-001	1.01219E-003	5	..........a	-327.66
	150	30.2	3.05512E-001	7.32874E-008	0.00000E+000	3.05550E-001	9.98592E-004	5	..........a	-327.66
	152	30.6	3.25564E-001	7.67738E-008	0.00000E+000	3.25550E-001	9.86492E-004	5	..........a	-327.66
	154	31	3.45531E-001	8.06785E-008	0.00000E+000	3.45550E-001	1.00339E-003	5	..........a	-327.66
	156	31.4	3.65514E-001	8.50928E-008	0.00000E+000	3.65550E-001	9.90192E-004	5	..........a	-327.66
	158	31.8	3.85487E-001	8.99653E-008	0.00000E+000	3.85550E-001	1.00939E-003	5	..........a	-327.66
	160	32.2	4.05513E-001	9.52592E-008	0.00000E+000	4.05550E-001	1.00389E-003	5	..........a	-327.66
	162	32.6	4.25475E-001	1.00905E-007	0.00000E+000	4.25550E-001	1.00939E-003	5	..........a	-327.66
	164	33	4.45506E-001	1.06892E-007	0.00000E+000	4.45550E-001	1.02279E-003	5	..........a	-327.66
	166	33.4	4.65484E-001	1.12932E-007	0.00000E+000	4.65550E-001	1.02769E-003	5	..........a	-327.66
	168	33.8	4.85462E-001	1.18933E-007	0.00000E+000	4.85550E-001	1.00579E-003	5	..........a	-327.66
	170	34.2	5.05465E-001	1.24819E-007	0.00000E+000	5.05550E-001	1.01039E-003	5	..........a	-327.66
	172	34.6	5.25504E-001	1.30653E-007	0.00000E+000	5.25550E-001	1.00569E-003	5	..........a	-327.66
	174	35	5.45469E-001	1.36526E-007	0.00000E+000	5.45550E-001	9.99092E-004	5	..........a	-327.66
	176	35.4	5.65451E-001	1.42404E-007	0.00000E+000	5.65550E-001	1.00019E-003	5	..........a	-327.66
	178	35.8	5.85459E-001	1.48433E-007	0.00000E+000	5.85550E-001	1.01359E-003	5	..........a	-327.66
	180	36.2	6.05442E-001	1.54519E-007	0.00000E+000	6.05550E-001	1.00819E-003	5	..........a	-327.66
	182	36.6	6.25420E-001	1.60745E-007	0.00000E+000	6.25550E-001	1.00269E-003	5	..........a	-327.66
	184	37	6.45416E-001	1.67236E-007	0.00000E+000	6.45550E-001	9.84692E-004	5	..........a	-327.66
	186	37.4	6.65409E-001	1.73588E-007	0.00000E+000	6.65550E-001	9.99792E-004	5	..........a	-327.66
	188	37.8	6.85407E-001	1.80282E-007	0.00000E+000	6.85550E-001	9.92092E-004	5	..........a	-327.66
	190	38.2	7.05397E-001	1.87332E-007	0.00000E+000	7.05550E-001	1.01139E-003	5	..........a	-327.66
	192	38.6	7.25417E-001	1.94913E-007	0.00000E+000	7.25550E-001	1.00359E-003	5	..........a	-327.66
	194	39	7.45396E-001	2.03443E-007	0.00000E+000	7.45550E-001	9.98192E-004	5	..........a	-327.66
	196	39.4	7.65409E-001	2.13287E-007	0.00000E+000	7.65550E-001	9.93992E-004	5	..........a	-327.66
	198	39.8	7.85376E-001	2.24509E-007	0.00000E+000	7.85550E-001	1.00729E-003	5	..........a	-327.66
	199	40	7.95392E-001	2.30791E-007	0.00000E+000	7.95550E-001	1.00779E-003	5	..........a	-327.66
CURVE2	TABLE
	Pt	T	Vf	Im	Vu	Sig	Ach	IERange	Over	Temp
	#	s	V vs. Ref.	A	V	V	V	#	bits	deg C
	200	40.2	7.89960E-001	2.01292E-007	0.00000E+000	7.90000E-001	1.01879E-003	5	..........a	-327.66
	203	40.8	7.59866E-001	1.37549E-007	0.00000E+000	7.60000E-001	1.00249E-003	5	..........a	-327.66
	206	41.4	7.29887E-001	1.06031E-007	0.00000E+000	7.30000E-001	9.96292E-004	5	..........a	-327.66
	209	42	6.99904E-001	8.59831E-008	0.00000E+000	7.00000E-001	1.01609E-003	5	..........a	-327.66
	212	42.6	6.69975E-001	7.13523E-008	0.00000E+000	6.70000E-001	1.01939E-003	5	..........a	-327.66
	215	43.2	6.39896E-001	5.97021E-008	0.00000E+000	6.40000E-001	1.02409E-003	5	..........a	-327.66
	218	43.8	6.09954E-001	4.98999E-008	0.00000E+000	6.10000E-001	1.01169E-003	5	..........a	-327.66
	221	44.4	5.79994E-001	4.13668E-008	0.00000E+000	5.80000E-001	9.99192E-004	5	..........a	-327.66
	224	45	5.50029E-001	3.37413E-008	0.00000E+000	5.50000E-001	1.02479E-003	5	..........a	-327.66
	227	45.6	5.19972E-001	2.65955E-008	0.00000E+000	5.20000E-001	1.01089E-003	5	..........a	-327.66
	230	46.2	4.89922E-001	1.98180E-008	0.00000E+000	4.90000E-001	1.01479E-003	5	..........a	-327.66
	233	46.8	4.60008E-001	1.32298E-008	0.00000E+000	4.60000E-001	1.00889E-003	5	..........a	-327.66
	236	47.4	4.29993E-001	6.43572E-009	0.00000E+000	4.30000E-001	9.93492E-004	5	..........a	-327.66
	239	48	3.99987E-001	-6.40247E-010	0.00000E+000	4.00000E-001	1.01439E-003	5	..........a	-327.66
	242	48.6	3.70046E-001	-7.68628E-009	0.00000E+000	3.70000E-001	1.02309E-003	5	..........a	-327.66
	245	49.2	3.40103E-001	-1.47780E-008	0.00000E+000	3.40000E-001	9.87692E-004	5	..........a	-327.66
	248	49.8	3.10043E-001	-2.17263E-008	0.00000E+000	3.10000E-001	1.02339E-003	5	..........a	-327.66
	251	50.4	2.79986E-001	-2.81793E-008	0.00000E+000	2.80000E-001	1.01129E-003	5	..........a	-327.66
	254	51	2.50008E-001	-3.38585E-008	0.00000E+000	2.50000E-001	1.02239E-003	5	..........a	-327.66
	257	51.6	2.19981E-001	-3.82245E-008	0.00000E+000	2.20000E-001	9.93592E-004	5	..........a	-327.66
	260	52.2	1.90119E-001	-4.11911E-008	0.00000E+000	1.90000E-001	1.01339E-003	5	..........a	-327.66
[...]
	1027	205.6	6.79865E-001	1.44504E-007	0.00000E+000	6.80000E-001	9.70692E-004	5	..........a	-327.66
	1030	206.2	7.09971E-001	1.54554E-007	0.00000E+000	7.10000E-001	1.00529E-003	5	..........a	-327.66
	1033	206.8	7.39871E-001	1.67234E-007	0.00000E+000	7.40000E-001	1.01429E-003	5	..........a	-327.66
	1036	207.4	7.69854E-001	1.83754E-007	0.00000E+000	7.70000E-001	1.00569E-003	5	..........a	-327.66
	1039	208	7.99837E-001	2.04372E-007	0.00000E+000	8.00000E-001	9.81092E-004	5	..........a	-327.66
CURVE5	TABLE
	Pt	T	Vf	Im	Vu	Sig	Ach	IERange	Over	Temp
	#	s	V vs. Ref.	A	V	V	V	#	bits	deg C
	1040	208.2	7.89963E-001	1.70398E-007	0.00000E+000	7.90000E-001	1.01549E-003	5	..........a	-327.66
	1041	208.4	7.79864E-001	1.47991E-007	0.00000E+000	7.80000E-001	1.00279E-003	5	..........a	-327.66
	1042	208.6	7.69889E-001	1.31480E-007	0.00000E+000	7.70000E-001	9.97792E-004	5	..........a	-327.66
	1043	208.8	7.59891E-001	1.18571E-007	0.00000E+000	7.60000E-001	9.97092E-004	5	..........a	-327.66
	1044	209	7.49975E-001	1.08190E-007	0.00000E+000	7.50000E-001	9.94492E-004	5	..........a	-327.66
	1045	209.2	7.39918E-001	9.94643E-008	0.00000E+000	7.40000E-001	9.84092E-004	5	..........a	-327.66
	1046	209.4	7.29908E-001	9.20349E-008	0.00000E+000	7.30000E-001	9.99492E-004	5	..........a	-327.66
	1047	209.6	7.19889E-001	8.55875E-008	0.00000E+000	7.20000E-001	1.01269E-003	5	..........a	-327.66
	1048	209.8	7.09958E-001	7.98303E-008	0.00000E+000	7.10000E-001	1.00709E-003	5	..........a	-327.66
	1049	210	6.99901E-001	7.47253E-008	0.00000E+000	7.00000E-001	9.92192E-004	5	..........a	-327.66
	1050	210.2	6.89889E-001	7.00766E-008	0.00000E+000	6.90000E-001	1.00929E-003	5	..........a	-327.66
	1051	210.4	6.79937E-001	6.57728E-008	0.00000E+000	6.80000E-001	1.00119E-003	5	..........a	-327.66
	1052	210.6	6.69972E-001	6.18079E-008	0.00000E+000	6.70000E-001	1.01939E-003	5	..........a	-327.66
	1053	210.8	6.59940E-001	5.81163E-008	0.00000E+000	6.60000E-001	1.00419E-003	5	..........a	-327.66
	1054	211	6.49923E-001	5.46485E-008	0.00000E+000	6.50000E-001	1.01699E-003	5	..........a	-327.66
	1055	211.2	6.39896E-001	5.13445E-008	0.00000E+000	6.40000E-001	1.00649E-003	5	..........a	-327.66
	1056	211.4	6.30011E-001	4.82296E-008	0.00000E+000	6.30000E-001	9.93592E-004	5	..........a	-327.66
	1057	211.6	6.19935E-001	4.52320E-008	0.00000E+000	6.20000E-001	9.87092E-004	5	..........a	-327.66
	1058	211.8	6.09966E-001	4.23732E-008	0.00000E+000	6.10000E-001	1.01259E-003	5	..........a	-327.66
	1059	212	5.99961E-001	3.95961E-008	0.00000E+000	6.00000E-001	9.92392E-004	5	..........a	-327.66
	1060	212.2	5.90033E-001	3.69982E-008	0.00000E+000	5.90000E-001	1.00889E-003	5	..........a	-327.66
	1061	212.4	5.80010E-001	3.45222E-008	0.00000E+000	5.80000E-001	1.00479E-003	5	..........a	-327.66
	1062	212.6	5.69976E-001	3.20997E-008	0.00000E+000	5.70000E-001	1.01769E-003	5	..........a	-327.66
	1063	212.8	5.59953E-001	2.97782E-008	0.00000E+000	5.60000E-001	1.00299E-003	5	..........a	-327.66
	1064	213	5.50038E-001	2.74576E-008	0.00000E+000	5.50000E-001	1.00699E-003	5	..........a	-327.66
	1065	213.2	5.39994E-001	2.51340E-008	0.00000E+000	5.40000E-001	1.01109E-003	5	..........a	-327.66
	1066	213.4	5.29930E-001	2.28757E-008	0.00000E+000	5.30000E-001	1.02279E-003	5	..........a	-327.66
	1067	213.6	5.19982E-001	2.06317E-008	0.00000E+000	5.20000E-001	9.92792E-004	5	..........a	-327.66
	1068	213.8	5.09954E-001	1.84703E-008	0.00000E+000	5.10000E-001	1.02549E-003	5	..........a	-327.66
	1069	214	5.00036E-001	1.63538E-008	0.00000E+000	5.00000E-001	1.01399E-003	5	..........a	-327.66
	1070	214.2	4.89959E-001	1.42800E-008	0.00000E+000	4.90000E-001	1.00469E-003	5	..........a	-327.66
	1071	214.4	4.79913E-001	1.22179E-008	0.00000E+000	4.80000E-001	9.98792E-004	5	..........a	-327.66
	1072	214.6	4.70031E-001	1.01083E-008	0.00000E+000	4.70000E-001	1.00099E-003	5	..........a	-327.66
	1073	214.8	4.59998E-001	8.01962E-009	0.00000E+000	4.60000E-001	1.00899E-003	5	..........a	-327.66
	1074	215	4.49764E-001	5.83791E-009	0.00000E+000	4.50000E-001	9.93992E-004	5	..........a	-327.66
	1075	215.2	4.39948E-001	3.64948E-009	0.00000E+000	4.40000E-001	9.92792E-004	5	..........a	-327.66
	1076	215.4	4.29986E-001	1.40573E-009	0.00000E+000	4.30000E-001	9.90992E-004	5	..........a	-327.66
	1077	215.6	4.20005E-001	-9.23068E-010	0.00000E+000	4.20000E-001	1.02679E-003	5	..........a	-327.66
	1078	215.8	4.10003E-001	-3.14869E-009	0.00000E+000	4.10000E-001	1.00199E-003	5	..........a	-327.66
	1079	216	4.00033E-001	-5.37816E-009	0.00000E+000	4.00000E-001	9.92592E-004	5	..........a	-327.66
	1080	216.2	3.90056E-001	-7.63135E-009	0.00000E+000	3.90000E-001	1.00629E-003	5	..........a	-327.66
	1081	216.4	3.80074E-001	-9.93856E-009	0.00000E+000	3.80000E-001	9.97792E-004	5	..........a	-327.66
	1082	216.6	3.70046E-001	-1.21873E-008	0.00000E+000	3.70000E-001	9.99192E-004	5	..........a	-327.66
	1083	216.8	3.60031E-001	-1.44927E-008	0.00000E+000	3.60000E-001	1.00399E-003	5	..........a	-327.66
	1084	217	3.50018E-001	-1.67796E-008	0.00000E+000	3.50000E-001	1.01469E-003	5	..........a	-327.66
	1085	217.2	3.40099E-001	-1.90162E-008	0.00000E+000	3.40000E-001	1.01449E-003	5	..........a	-327.66
	1086	217.4	3.30023E-001	-2.13049E-008	0.00000E+000	3.30000E-001	9.99092E-004	5	..........a	-327.66
	1087	217.6	3.20063E-001	-2.35168E-008	0.00000E+000	3.20000E-001	1.00469E-003	5	..........a	-327.66
	1088	217.8	3.10071E-001	-2.57102E-008	0.00000E+000	3.10000E-001	1.00939E-003	5	..........a	-327.66
	1089	218	3.00103E-001	-2.78378E-008	0.00000E+000	3.00000E-001	1.00399E-003	5	..........a	-327.66
	1090	218.2	2.90070E-001	-2.98659E-008	0.00000E+000	2.90000E-001	1.00659E-003	5	..........a	-327.66
	1091	218.4	2.79996E-001	-3.18886E-008	0.00000E+000	2.80000E-001	9.96692E-004	5	..........a	-327.66
	1092	218.6	2.70065E-001	-3.37308E-008	0.00000E+000	2.70000E-001	9.93992E-004	5	..........a	-327.66
	1093	218.8	2.60074E-001	-3.55019E-008	0.00000E+000	2.60000E-001	9.91792E-004	5	..........a	-327.66
	1094	219	2.50014E-001	-3.71089E-008	0.00000E+000	2.50000E-001	9.97292E-004	5	..........a	-327.66
	1095	219.2	2.40056E-001	-3.85874E-008	0.00000E+000	2.40000E-001	9.99692E-004	5	..........a	-327.66
	1096	219.4	2.30030E-001	-3.98668E-008	0.00000E+000	2.30000E-001	1.01869E-003	5	..........a	-327.66
	1097	219.6	2.20077E-001	-4.10022E-008	0.00000E+000	2.20000E-001	9.90592E-004	5	..........a	-327.66
	1098	219.8	2.10031E-001	-4.20358E-008	0.00000E+000	2.10000E-001	9.95192E-004	5	..........a	-327.66
	1099	220	2.00057E-001	-4.28009E-008	0.00000E+000	2.00000E-001	1.00859E-003	5	..........a	-327.66
	1100	220.2	1.90117E-001	-4.33981E-008	0.00000E+000	1.90000E-001	9.97992E-004	5	..........a	-327.66
	1101	220.4	1.80107E-001	-4.38125E-008	0.00000E+000	1.80000E-001	9.90592E-004	5	..........a	-327.66
	1102	220.6	1.70098E-001	-4.40815E-008	0.00000E+000	1.70000E-001	1.00679E-003	5	..........a	-327.66
	1103	220.8	1.60090E-001	-4.42390E-008	0.00000E+000	1.60000E-001	1.00999E-003	5	..........a	-327.66
	1104	221	1.50111E-001	-4.43630E-008	0.00000E+000	1.50000E-001	9.95192E-004	5	..........a	-327.66
	1105	221.2	1.40137E-001	-4.44202E-008	0.00000E+000	1.40000E-001	9.97592E-004	5	..........a	-327.66
	1106	221.4	1.30091E-001	-4.44886E-008	0.00000E+000	1.30000E-001	1.00009E-003	5	..........a	-327.66
	1107	221.6	1.20105E-001	-4.46445E-008	0.00000E+000	1.20000E-001	9.94892E-004	5	..........a	-327.66
	1108	221.8	1.10139E-001	-4.48548E-008	0.00000E+000	1.10000E-001	9.93592E-004	5	..........a	-327.66
	1109	222	1.00118E-001	-4.51713E-008	0.00000E+000	1.00000E-001	9.96192E-004	5	..........a	-327.66
	1110	222.2	9.01082E-002	-4.56183E-008	0.00000E+000	9.00000E-002	1.00349E-003	5	..........a	-327.66
	1111	222.4	8.00823E-002	-4.60380E-008	0.00000E+000	8.00000E-002	1.02089E-003	5	..........a	-327.66
	1112	222.6	7.00492E-002	-4.65759E-008	0.00000E+000	7.00000E-002	1.01979E-003	5	..........a	-327.66
	1113	222.8	6.01256E-002	-4.71574E-008	0.00000E+000	6.00000E-002	1.01689E-003	5	..........a	-327.66
	1114	223	5.00371E-002	-4.77533E-008	0.00000E+000	5.00000E-002	1.02069E-003	5	..........a	-327.66
	1115	223.2	4.00754E-002	-4.84052E-008	0.00000E+000	4.00000E-002	1.00499E-003	5	..........a	-327.66
	1116	223.4	3.00689E-002	-4.91338E-008	0.00000E+000	3.00000E-002	1.00679E-003	5	..........a	-327.66
	1117	223.6	2.01813E-002	-4.99151E-008	0.00000E+000	2.00000E-002	1.00329E-003	5	..........a	-327.66
	1118	223.8	1.01217E-002	-5.06562E-008	0.00000E+000	1.00000E-002	9.98192E-004	5	..........a	-327.66
	1119	224	5.85417E-005	-5.13709E-008	0.00000E+000	7.45058E-009	1.00119E-003	5	..........a	-327.66
	1120	224.2	-9.88236E-003	-5.18761E-008	0.00000E+000	-1.00000E-002	9.95992E-004	5	..........a	-327.66