File: data/raw/batch_data/20240424_ZB_GM0016_HL03_E07_CV50K.DTA
EXPLAIN
TAG	CV
TITLE	LABEL	Cyclic Voltammetry	Test &Identifier
DATE	LABEL	4/24/2024	Date
TIME	LABEL	18:19:13	Time
NOTES	NOTES	1	&Notes...

PSTAT	PSTAT	REF600P-43058	Potentiostat
VINIT	POTEN	0.00000E+000	T	Initial &E (V)
VLIMIT1	POTEN	-6.00000E-001	F	Scan Limit &1 (V)
VLIMIT2	POTEN	8.00000E-001	F	Scan Limit &2 (V)
VFINAL	POTEN	0.00000E+000	T	Final &E (V)
SCANRATE	QUANT	4.99999E+004	&Scan Rate (mV/s)
STEPSIZE	QUANT	1.00000E+001	St&ep Size (mV)
CYCLES	IQUANT	10	C&ycles (#)
IMODE	SELECTOR	0	I/E Range &Mode
IRANGE	QUANT	1.00000E-005	&Max Current (mA)
AREA	QUANT	1.00000E+000	Electrode &Area (cm^2)
ELECTRODETYPE	SELECTOR	0	Electrode Type
STRIPPING	TOGGLE	F	Used for Stripping
POLARITY	TOGGLE	F	Signal Polarity
CONDIT	TWOPARAM	F	1.50000E+001	0.00000E+000	Conditionin&g	Time(s)	E(V)
DELAY	TWOPARAM	T	1.00000E+001	0.00000E+000	Init. De&lay	Time(s)	Stab.(mV/s)
EQDELAY	QUANT	1.00000E+001	Equil. &Time (s)
IRCOMP	SELECTOR	0	IRCom&p
PFCOR	QUANT	5.00000E+001	PF Corr. (ohm)
SAMPLINGMODE	SELECTOR	1	Sampling &Mode
OCVCURVE	TABLE	39
	Pt	T	Vf	Vm	Ach	Over	Temp
	#	s	V vs. Ref.	V	V	bits	deg C
	0	0.258333	-2.69351E-002	-2.69351E-002	2.01992E-004	..........a	-327.66
	1	0.516667	-2.69386E-002	-2.71176E-002	1.99792E-004	..........a	-327.66
	2	0.775	-2.69602E-002	-2.73000E-002	2.01592E-004	..........a	-327.66
	3	1.03333	-2.70221E-002	-2.74877E-002	2.02592E-004	..........a	-327.66
	4	1.29167	-2.71352E-002	-2.76741E-002	2.02926E-004	..........a	-327.66
	5	1.55	-2.72899E-002	-2.78538E-002	2.05992E-004	..........a	-327.66
	6	1.80833	-2.74675E-002	-2.80313E-002	2.09792E-004	..........a	-327.66
	7	2.06667	-2.76523E-002	-2.82224E-002	2.00726E-004	..........a	-327.66
	8	2.325	-2.78375E-002	-2.84053E-002	2.00792E-004	..........a	-327.66
	9	2.58333	-2.80218E-002	-2.85839E-002	2.13992E-004	..........a	-327.66
	10	2.84167	-2.82055E-002	-2.87635E-002	2.02526E-004	..........a	-327.66
	11	3.1	-2.83883E-002	-2.89462E-002	2.03326E-004	..........a	-327.66
	12	3.35833	-2.85698E-002	-2.91236E-002	2.01326E-004	..........a	-327.66
	13	3.61667	-2.87501E-002	-2.92863E-002	2.07392E-004	..........a	-327.66
	14	3.875	-2.89285E-002	-2.94682E-002	2.15659E-004	..........a	-327.66
	15	4.13333	-2.91044E-002	-2.96352E-002	1.97392E-004	..........a	-327.66
	16	4.39167	-2.92783E-002	-2.98096E-002	2.00392E-004	..........a	-327.66
	17	4.65	-2.94511E-002	-2.99790E-002	1.98459E-004	..........a	-327.66
	18	4.90833	-2.96232E-002	-3.01464E-002	2.00326E-004	..........a	-327.66
	19	5.16667	-2.97944E-002	-3.03143E-002	2.02659E-004	..........a	-327.66
	20	5.425	-2.99643E-002	-3.04791E-002	1.98792E-004	..........a	-327.66
	21	5.68333	-3.01328E-002	-3.06451E-002	2.09792E-004	..........a	-327.66
	22	5.94167	-3.03002E-002	-3.08136E-002	2.12659E-004	..........a	-327.66
	23	6.2	-3.04668E-002	-3.09781E-002	2.08192E-004	..........a	-327.66
	24	6.45833	-3.06330E-002	-3.11399E-002	2.15859E-004	..........a	-327.66
	25	6.71667	-3.07988E-002	-3.13017E-002	2.17126E-004	..........a	-327.66
	26	6.975	-3.09634E-002	-3.14609E-002	2.16326E-004	..........a	-327.66
	27	7.23333	-3.11265E-002	-3.16238E-002	2.15126E-004	..........a	-327.66
	28	7.49167	-3.12883E-002	-3.17797E-002	2.09459E-004	..........a	-327.66
	29	7.75	-3.14493E-002	-3.19509E-002	2.00859E-004	..........a	-327.66
	30	8.00833	-3.16103E-002	-3.21088E-002	2.11392E-004	..........a	-327.66
	31	8.26667	-3.17719E-002	-3.22608E-002	2.06526E-004	..........a	-327.66
	32	8.525	-3.19331E-002	-3.24183E-002	2.15392E-004	..........a	-327.66
	33	8.78333	-3.20924E-002	-3.25711E-002	2.08392E-004	..........a	-327.66
	34	9.04167	-3.22495E-002	-3.27250E-002	2.01392E-004	..........a	-327.66
	35	9.3	-3.24048E-002	-3.28736E-002	1.92726E-004	..........a	-327.66
	36	9.5583	-3.25586E-002	-3.30210E-002	1.94459E-004	..........a	-327.66
	37	9.8167	-3.27104E-002	-3.31589E-002	2.01459E-004	..........a	-327.66
	38	10.075	-3.28595E-002	-3.33033E-002	2.07859E-004	..........a	-327.66
EOC	QUANT	-0.0328595	Open Circuit (V)
PSTATMODEL	IQUANT	7	Pstat Model
PSTATSECTION	LABEL	REF600P-43058	Pstat Section
PSTATSERIALNO	LABEL	43058	Pstat Serial Number
CTRLMODE	IQUANT	1	Control Mode
ELECTROMETER	IQUANT	0	RE=0 or CS=1
IESTAB	IQUANT	2	I/E Stability
CASPEED	IQUANT	4	Control Amp Speed
CONVENTION	IQUANT	1	Current Convention
ICHRANGE	IQUANT	2	Ich Range
ICHRANGEMODE	TOGGLE	F	Ich Auto Range
ICHOFFSETENABLE	TOGGLE	F	Ich Offset Enable
ICHOFFSET	QUANT	0	Ich Offset (V)
ICHFILTER	IQUANT	1	Ich Filter
VCHRANGE	IQUANT	2	Vch Range
VCHRANGEMODE	TOGGLE	F	Vch Auto Range
VCHOFFSETENABLE	TOGGLE	F	Vch Offset Enable
VCHOFFSET	QUANT	0	Vch Offset (V)
VCHFILTER	IQUANT	1	Vch Filter
ACHRANGE	IQUANT	2	Ach Range
ACHOFFSETENABLE	TOGGLE	F	Ach Offset Enable
ACHOFFSET	QUANT	0	Ach Offset (V)
ACHFILTER	IQUANT	1	Ach Filter
IERANGELOWERLIMIT	IQUANT	1	I/E Range Lower Limit
IERANGEMODE	TOGGLE	T	I/E AutoRange
IERANGE	IQUANT	4	I/E Range
POSFEEDENABLE	TOGGLE	F	Positive Feedback IR Comp
POSFEEDRESISTANCE	QUANT	0	Positive Feedback Resistance (ohm)
ACHSELECT	IQUANT	4	Ach Select
SENSECABLEID	IQUANT	7	Sense Cable ID
PWRCABLEID	IQUANT	7	Power Cable ID
DCCALDATE	LABEL	3/22/2024	DC Calibration Date
ACCALDATE	LABEL	3/22/2024	AC Calibration Date
THERMOSELECT	IQUANT	1	Thermo Select
FRAMEWORKVERSION	LABEL	7.8.4	Framework Version
INSTRUMENTVERSION	LABEL	4.42	Instrument Version
CURVE1	TABLE
	Pt	T	Vf	Im	Vu	Sig	Ach	IERange	Over	Temp
	#	s	V vs. Ref.	A	V	V	V	#	bits	deg C
	0	0.0002	-3.27529E-002	2.35001E-007	0.00000E+000	-3.28500E-002	8.15923E-005	8	..........a	-327.66
	2	0.0006	-5.27529E-002	-1.48506E-006	0.00000E+000	-5.28500E-002	8.15923E-005	8	..........a	-327.66
	4	0.001	-7.28529E-002	-2.59511E-006	0.00000E+000	-7.28500E-002	8.15923E-005	8	..........a	-327.66
	6	0.0014	-9.27529E-002	-3.31514E-006	0.00000E+000	-9.28500E-002	8.15923E-005	8	..........a	-327.66
	8	0.0018	-1.12853E-001	-3.96516E-006	0.00000E+000	-1.12850E-001	8.15923E-005	8	..........a	-327.66
	10	0.0022	-1.32653E-001	-4.43518E-006	0.00000E+000	-1.32850E-001	8.15923E-005	8	..........a	-327.66
	12	0.0026	-1.52853E-001	-4.80519E-006	0.00000E+000	-1.52850E-001	8.15923E-005	8	..........a	-327.66
	14	0.003	-1.72853E-001	-5.18521E-006	0.00000E+000	-1.72850E-001	8.15923E-005	8	..........a	-327.66
	16	0.0034	-1.92653E-001	-5.49522E-006	0.00000E+000	-1.92850E-001	8.15923E-005	8	..........a	-327.66
	18	0.0038	-2.12753E-001	-5.73523E-006	0.00000E+000	-2.12850E-001	8.15923E-005	8	..........a	-327.66
	20	0.0042	-2.32653E-001	-5.99524E-006	0.00000E+000	-2.32850E-001	8.15923E-005	8	..........a	-327.66
	22	0.0046	-2.52853E-001	-6.20525E-006	0.00000E+000	-2.52850E-001	8.15923E-005	8	..........a	-327.66
	24	0.005	-2.72753E-001	-6.43525E-006	0.00000E+000	-2.72850E-001	8.15923E-005	8	..........a	-327.66
	26	0.0054	-2.92653E-001	-6.68526E-006	0.00000E+000	-2.92850E-001	8.15923E-005	8	..........a	-327.66
	28	0.0058	-3.12853E-001	-6.88527E-006	0.00000E+000	-3.12850E-001	-3.18408E-004	8	..........a	-327.66
	30	0.0062	-3.32853E-001	-7.14528E-006	0.00000E+000	-3.32850E-001	8.15923E-005	8	..........a	-327.66
	32	0.0066	-3.52753E-001	-7.41529E-006	0.00000E+000	-3.52850E-001	8.15923E-005	8	..........a	-327.66
	34	0.007	-3.72853E-001	-7.69530E-006	0.00000E+000	-3.72850E-001	8.15923E-005	8	..........a	-327.66
	36	0.0074	-3.92753E-001	-7.97531E-006	0.00000E+000	-3.92850E-001	8.15923E-005	8	..........a	-327.66
	38	0.0078	-4.12653E-001	-8.20532E-006	0.00000E+000	-4.12850E-001	8.15923E-005	8	..........a	-327.66
	40	0.0082	-4.32753E-001	-8.51533E-006	0.00000E+000	-4.32850E-001	8.15923E-005	8	..........a	-327.66
	42	0.0086	-4.52753E-001	-8.73534E-006	0.00000E+000	-4.52850E-001	8.15923E-005	8	..........a	-327.66
	44	0.009	-4.72853E-001	-9.11536E-006	0.00000E+000	-4.72850E-001	8.15923E-005	8	..........a	-327.66
	46	0.0094	-4.92553E-001	-9.39537E-006	0.00000E+000	-4.92850E-001	8.15923E-005	8	..........a	-327.66
	48	0.0098	-5.12953E-001	-9.73538E-006	0.00000E+000	-5.12850E-001	-3.18408E-004	8	..........a	-327.66
	50	0.0102	-5.32753E-001	-1.00354E-005	0.00000E+000	-5.32850E-001	8.15923E-005	8	..........a	-327.66
	52	0.0106	-5.52753E-001	-1.03254E-005	0.00000E+000	-5.52850E-001	-3.18408E-004	8	..........a	-327.66
	54	0.011	-5.72553E-001	-1.06754E-005	0.00000E+000	-5.72850E-001	-2.18408E-004	8	..........a	-327.66
	56	0.0114	-5.92753E-001	-1.09954E-005	0.00000E+000	-5.92850E-001	-3.18408E-004	8	..........a	-327.66
	58	0.0118	-5.92753E-001	-9.19536E-006	0.00000E+000	-5.92850E-001	8.15923E-005	8	..........a	-327.66
	60	0.0122	-5.72753E-001	-6.48526E-006	0.00000E+000	-5.72850E-001	8.15923E-005	8	..........a	-327.66
	62	0.0126	-5.52853E-001	-4.49518E-006	0.00000E+000	-5.52850E-001	8.15923E-005	8	..........a	-327.66
	64	0.013	-5.32753E-001	-2.93512E-006	0.00000E+000	-5.32850E-001	8.15923E-005	8	..........a	-327.66
	66	0.0134	-5.12753E-001	-1.60507E-006	0.00000E+000	-5.12850E-001	-3.18408E-004	8	..........a	-327.66
	68	0.0138	-4.92753E-001	-4.75026E-007	0.00000E+000	-4.92850E-001	8.15923E-005	8	..........a	-327.66
	70	0.0142	-4.72853E-001	4.35009E-007	0.00000E+000	-4.72850E-001	8.15923E-005	8	..........a	-327.66
	72	0.0146	-4.52853E-001	1.32504E-006	0.00000E+000	-4.52850E-001	8.15923E-005	8	..........a	-327.66
	74	0.015	-4.32653E-001	2.02507E-006	0.00000E+000	-4.32850E-001	8.15923E-005	8	..........a	-327.66
	76	0.0154	-4.13053E-001	2.63509E-006	0.00000E+000	-4.12850E-001	8.15923E-005	8	..........a	-327.66
	78	0.0158	-3.92603E-001	3.22512E-006	0.00000E+000	-3.92850E-001	8.15923E-005	8	..........a	-327.66
	80	0.0162	-3.72853E-001	3.67513E-006	0.00000E+000	-3.72850E-001	8.15923E-005	8	..........a	-327.66
	82	0.0166	-3.52653E-001	4.10515E-006	0.00000E+000	-3.52850E-001	8.15923E-005	8	..........a	-327.66
	84	0.017	-3.32953E-001	4.52517E-006	0.00000E+000	-3.32850E-001	8.15923E-005	8	..........a	-327.66
	86	0.0174	-3.12903E-001	4.84518E-006	0.00000E+000	-3.12850E-001	8.15923E-005	8	..........a	-327.66
	88	0.0178	-2.92953E-001	5.17519E-006	0.00000E+000	-2.92850E-001	8.15923E-005	8	..........a	-327.66
	90	0.0182	-2.72753E-001	5.51520E-006	0.00000E+000	-2.72850E-001	8.15923E-005	8	..........a	-327.66
	92	0.0186	-2.52753E-001	5.76521E-006	0.00000E+000	-2.52850E-001	8.15923E-005	8	..........a	-327.66
	94	0.019	-2.32853E-001	6.01522E-006	0.00000E+000	-2.32850E-001	8.15923E-005	8	..........a	-327.66
	96	0.0194	-2.12753E-001	6.24523E-006	0.00000E+000	-2.12850E-001	8.15923E-005	8	..........a	-327.66
	98	0.0198	-1.92853E-001	6.49524E-006	0.00000E+000	-1.92850E-001	8.15923E-005	8	..........a	-327.66
	100	0.0202	-1.72753E-001	6.66525E-006	0.00000E+000	-1.72850E-001	8.15923E-005	8	..........a	-327.66
	102	0.0206	-1.52953E-001	6.84525E-006	0.00000E+000	-1.52850E-001	8.15923E-005	8	..........a	-327.66
	104	0.021	-1.32853E-001	7.06526E-006	0.00000E+000	-1.32850E-001	8.15923E-005	8	..........a	-327.66
	106	0.0214	-1.13153E-001	7.24527E-006	0.00000E+000	-1.12850E-001	8.15923E-005	8	..........a	-327.66
	108	0.0218	-9.29529E-002	7.40528E-006	0.00000E+000	-9.28500E-002	8.15923E-005	8	..........a	-327.66
	110	0.0222	-7.30029E-002	7.61528E-006	0.00000E+000	-7.28500E-002	8.15923E-005	8	..........a	-327.66
	112	0.0226	-5.30029E-002	7.79529E-006	0.00000E+000	-5.28500E-002	8.15923E-005	8	..........a	-327.66
	114	0.023	-3.27529E-002	7.95530E-006	0.00000E+000	-3.28500E-002	-3.18408E-004	8	..........a	-327.66
	116	0.0234	-1.26529E-002	8.10530E-006	0.00000E+000	-1.28500E-002	8.15923E-005	8	..........a	-327.66
	118	0.0238	7.14711E-003	8.27531E-006	0.00000E+000	7.15000E-003	8.15923E-005	8	..........a	-327.66
	120	0.0242	2.72471E-002	8.45532E-006	0.00000E+000	2.71500E-002	8.15923E-005	8	..........a	-327.66
	122	0.0246	4.71471E-002	8.69533E-006	0.00000E+000	4.71500E-002	8.15923E-005	8	..........a	-327.66
	124	0.025	6.68471E-002	8.87533E-006	0.00000E+000	6.71500E-002	-3.18408E-004	8	..........a	-327.66
	126	0.0254	8.71471E-002	9.14534E-006	0.00000E+000	8.71500E-002	-2.18408E-004	8	..........a	-327.66
	128	0.0258	1.07047E-001	9.34535E-006	0.00000E+000	1.07150E-001	-1.18408E-004	8	..........a	-327.66
	130	0.0262	1.27447E-001	9.58536E-006	0.00000E+000	1.27150E-001	8.15923E-005	8	..........a	-327.66
	132	0.0266	1.47347E-001	9.92537E-006	0.00000E+000	1.47150E-001	8.15923E-005	8	..........a	-327.66
	134	0.027	1.67447E-001	1.03054E-005	0.00000E+000	1.67150E-001	8.15923E-005	8	..........a	-327.66
	136	0.0274	1.87247E-001	1.06054E-005	0.00000E+000	1.87150E-001	-3.18408E-004	8	..........a	-327.66
	138	0.0278	2.07147E-001	1.08954E-005	0.00000E+000	2.07150E-001	8.15923E-005	8	..........a	-327.66
	140	0.0282	2.27297E-001	1.11554E-005	0.00000E+000	2.27150E-001	8.15923E-005	8	..........a	-327.66
	142	0.0286	2.47197E-001	1.15054E-005	0.00000E+000	2.47150E-001	8.15923E-005	8	..........a	-327.66
	144	0.029	2.67247E-001	1.19154E-005	0.00000E+000	2.67150E-001	8.15923E-005	8	..........a	-327.66
	146	0.0294	2.87247E-001	1.23655E-005	0.00000E+000	2.87150E-001	8.15923E-005	8	..........a	-327.66
	148	0.0298	3.06947E-001	1.27555E-005	0.00000E+000	3.07150E-001	8.15923E-005	8	..........a	-327.66
	150	0.0302	3.27147E-001	1.31955E-005	0.00000E+000	3.27150E-001	8.15923E-005	8	..........a	-327.66
	152	0.0306	3.47147E-001	1.35755E-005	0.00000E+000	3.47150E-001	-3.18408E-004	8	..........a	-327.66
	154	0.031	3.67047E-001	1.39355E-005	0.00000E+000	3.67150E-001	8.15923E-005	8	..........a	-327.66
	156	0.0314	3.87047E-001	1.42955E-005	0.00000E+000	3.87150E-001	8.15923E-005	8	..........a	-327.66
	158	0.0318	4.06947E-001	1.46656E-005	0.00000E+000	4.07150E-001	8.15923E-005	8	..........a	-327.66
	160	0.0322	4.27197E-001	1.50756E-005	0.00000E+000	4.27150E-001	8.15923E-005	8	..........a	-327.66
	162	0.0326	4.47247E-001	1.54756E-005	0.00000E+000	4.47150E-001	-4.18408E-004	8	..........a	-327.66
	164	0.033	4.67047E-001	1.58056E-005	0.00000E+000	4.67150E-001	-2.18408E-004	8	..........a	-327.66
	166	0.0334	4.87097E-001	1.61156E-005	0.00000E+000	4.87150E-001	8.15923E-005	8	..........a	-327.66
	168	0.0338	5.07147E-001	1.64156E-005	0.00000E+000	5.07150E-001	8.15923E-005	8	..........a	-327.66
	170	0.0342	5.26847E-001	1.67256E-005	0.00000E+000	5.27150E-001	-4.18408E-004	8	..........a	-327.66
	172	0.0346	5.47247E-001	1.70056E-005	0.00000E+000	5.47150E-001	8.15923E-005	8	..........a	-327.66
	174	0.035	5.67047E-001	1.72757E-005	0.00000E+000	5.67150E-001	-3.18408E-004	8	..........a	-327.66
	176	0.0354	5.87047E-001	1.74857E-005	0.00000E+000	5.87150E-001	-2.18408E-004	8	..........a	-327.66
	178	0.0358	6.06997E-001	1.77957E-005	0.00000E+000	6.07150E-001	8.15923E-005	8	..........a	-327.66
	180	0.0362	6.26947E-001	1.79857E-005	0.00000E+000	6.27150E-001	8.15923E-005	8	..........a	-327.66
	182	0.0366	6.47147E-001	1.81857E-005	0.00000E+000	6.47150E-001	8.15923E-005	8	..........a	-327.66
	184	0.037	6.67147E-001	1.84257E-005	0.00000E+000	6.67150E-001	8.15923E-005	8	..........a	-327.66
	186	0.0374	6.87147E-001	1.86457E-005	0.00000E+000	6.87150E-001	8.15923E-005	8	..........a	-327.66
	188	0.0378	7.07247E-001	1.88657E-005	0.00000E+000	7.07150E-001	8.15923E-005	8	..........a	-327.66
	190	0.0382	7.27147E-001	1.91357E-005	0.00000E+000	7.27150E-001	8.15923E-005	8	..........a	-327.66
	192	0.0386	7.47147E-001	1.92857E-005	0.00000E+000	7.47150E-001	8.15923E-005	8	..........a	-327.66
	194	0.039	7.67247E-001	1.95057E-005	0.00000E+000	7.67150E-001	8.15923E-005	8	..........a	-327.66
	196	0.0394	7.87097E-001	1.96557E-005	0.00000E+000	7.87150E-001	8.15923E-005	8	..........a	-327.66
	197	0.0396	7.97047E-001	1.97457E-005	0.00000E+000	7.97150E-001	8.15923E-005	8	..........a	-327.66
CURVE2	TABLE
	Pt	T	Vf	Im	Vu	Sig	Ach	IERange	Over	Temp
	#	s	V vs. Ref.	A	V	V	V	#	bits	deg C
	198	0.0398	7.89847E-001	1.75257E-005	0.00000E+000	7.90000E-001	-2.18408E-004	8	..........a	-327.66
	201	0.0404	7.59947E-001	1.22355E-005	0.00000E+000	7.60000E-001	8.15923E-005	8	..........a	-327.66
	204	0.041	7.29947E-001	8.55532E-006	0.00000E+000	7.30000E-001	8.15923E-005	8	..........a	-327.66
	207	0.0416	6.99947E-001	5.77521E-006	0.00000E+000	7.00000E-001	8.15923E-005	8	..........a	-327.66
	210	0.0422	6.69847E-001	3.49513E-006	0.00000E+000	6.70000E-001	8.15923E-005	8	..........a	-327.66
	213	0.0428	6.39647E-001	1.58505E-006	0.00000E+000	6.40000E-001	8.15923E-005	8	..........a	-327.66
	216	0.0434	6.09897E-001	-3.50093E-008	0.00000E+000	6.10000E-001	8.15923E-005	8	..........a	-327.66
	219	0.044	5.79947E-001	-1.33506E-006	0.00000E+000	5.80000E-001	8.15923E-005	8	..........a	-327.66
	222	0.0446	5.49947E-001	-2.56511E-006	0.00000E+000	5.50000E-001	8.15923E-005	8	..........a	-327.66
	225	0.0452	5.20047E-001	-3.52514E-006	0.00000E+000	5.20000E-001	-1.18408E-004	8	..........a	-327.66
	228	0.0458	4.89947E-001	-4.59518E-006	0.00000E+000	4.90000E-001	8.15923E-005	8	..........a	-327.66
	231	0.0464	4.60147E-001	-5.49522E-006	0.00000E+000	4.60000E-001	8.15923E-005	8	..........a	-327.66
	234	0.047	4.29847E-001	-6.31525E-006	0.00000E+000	4.30000E-001	8.15923E-005	8	..........a	-327.66
	237	0.0476	3.99747E-001	-7.12528E-006	0.00000E+000	4.00000E-001	8.15923E-005	8	..........a	-327.66
	240	0.0482	3.69847E-001	-7.97531E-006	0.00000E+000	3.70000E-001	8.15923E-005	8	..........a	-327.66
	243	0.0488	3.40047E-001	-8.64534E-006	0.00000E+000	3.40000E-001	-3.18408E-004	8	..........a	-327.66
	246	0.0494	3.09947E-001	-9.45537E-006	0.00000E+000	3.10000E-001	8.15923E-005	8	..........a	-327.66
	249	0.05	2.79997E-001	-1.01954E-005	0.00000E+000	2.80000E-001	-3.18408E-004	8	..........a	-327.66
	252	0.0506	2.49947E-001	-1.09354E-005	0.00000E+000	2.50000E-001	8.15923E-005	8	..........a	-327.66
[...]
	2714	0.543	7.69947E-001	1.84557E-005	0.00000E+000	7.70000E-001	8.15923E-005	8	..........a	-327.66
	2717	0.5436	7.99847E-001	1.85157E-005	0.00000E+000	8.00000E-001	8.15923E-005	8	..........a	-327.66
CURVE11	TABLE
	Pt	T	Vf	Im	Vu	Sig	Ach	IERange	Over	Temp
	#	s	V vs. Ref.	A	V	V	V	#	bits	deg C
	2718	0.5438	7.89847E-001	1.59256E-005	0.00000E+000	7.90000E-001	8.15923E-005	8	..........a	-327.66
	2719	0.544	7.79947E-001	1.40055E-005	0.00000E+000	7.80000E-001	8.15923E-005	8	..........a	-327.66
	2720	0.5442	7.69847E-001	1.23255E-005	0.00000E+000	7.70000E-001	8.15923E-005	8	..........a	-327.66
	2721	0.5444	7.59947E-001	1.08454E-005	0.00000E+000	7.60000E-001	8.15923E-005	8	..........a	-327.66
	2722	0.5446	7.49847E-001	9.58536E-006	0.00000E+000	7.50000E-001	8.15923E-005	8	..........a	-327.66
	2723	0.5448	7.39847E-001	8.45532E-006	0.00000E+000	7.40000E-001	8.15923E-005	8	..........a	-327.66
	2724	0.545	7.30047E-001	7.42528E-006	0.00000E+000	7.30000E-001	-3.18408E-004	8	..........a	-327.66
	2725	0.5452	7.19947E-001	6.44524E-006	0.00000E+000	7.20000E-001	-3.18408E-004	8	..........a	-327.66
	2726	0.5454	7.09847E-001	5.54520E-006	0.00000E+000	7.10000E-001	-2.18408E-004	8	..........a	-327.66
	2727	0.5456	6.99947E-001	4.68517E-006	0.00000E+000	7.00000E-001	8.15923E-005	8	..........a	-327.66
	2728	0.5458	6.89847E-001	3.94514E-006	0.00000E+000	6.90000E-001	8.15923E-005	8	..........a	-327.66
	2729	0.546	6.80047E-001	3.21511E-006	0.00000E+000	6.80000E-001	8.15923E-005	8	..........a	-327.66
	2730	0.5462	6.69847E-001	2.53509E-006	0.00000E+000	6.70000E-001	8.15923E-005	8	..........a	-327.66
	2731	0.5464	6.59947E-001	1.90506E-006	0.00000E+000	6.60000E-001	8.15923E-005	8	..........a	-327.66
	2732	0.5466	6.49947E-001	1.32504E-006	0.00000E+000	6.50000E-001	8.15923E-005	8	..........a	-327.66
	2733	0.5468	6.39947E-001	7.15019E-007	0.00000E+000	6.40000E-001	8.15923E-005	8	..........a	-327.66
	2734	0.547	6.29947E-001	2.55002E-007	0.00000E+000	6.30000E-001	8.15923E-005	8	..........a	-327.66
	2735	0.5472	6.19747E-001	-2.95019E-007	0.00000E+000	6.20000E-001	8.15923E-005	8	..........a	-327.66
	2736	0.5474	6.09947E-001	-7.25036E-007	0.00000E+000	6.10000E-001	8.15923E-005	8	..........a	-327.66
	2737	0.5476	5.99947E-001	-1.19505E-006	0.00000E+000	6.00000E-001	8.15923E-005	8	..........a	-327.66
	2738	0.5478	5.89947E-001	-1.64507E-006	0.00000E+000	5.90000E-001	8.15923E-005	8	..........a	-327.66
	2739	0.548	5.79947E-001	-2.02509E-006	0.00000E+000	5.80000E-001	8.15923E-005	8	..........a	-327.66
	2740	0.5482	5.69847E-001	-2.41510E-006	0.00000E+000	5.70000E-001	8.15923E-005	8	..........a	-327.66
	2741	0.5484	5.59947E-001	-2.82512E-006	0.00000E+000	5.60000E-001	8.15923E-005	8	..........a	-327.66
	2742	0.5486	5.49947E-001	-3.15513E-006	0.00000E+000	5.50000E-001	8.15923E-005	8	..........a	-327.66
	2743	0.5488	5.39947E-001	-3.51514E-006	0.00000E+000	5.40000E-001	8.15923E-005	8	..........a	-327.66
	2744	0.549	5.30047E-001	-3.81515E-006	0.00000E+000	5.30000E-001	8.15923E-005	8	..........a	-327.66
	2745	0.5492	5.20047E-001	-4.15517E-006	0.00000E+000	5.20000E-001	-3.18408E-004	8	..........a	-327.66
	2746	0.5494	5.10047E-001	-4.47518E-006	0.00000E+000	5.10000E-001	8.15923E-005	8	..........a	-327.66
	2747	0.5496	4.99997E-001	-4.77519E-006	0.00000E+000	5.00000E-001	8.15923E-005	8	..........a	-327.66
	2748	0.5498	4.89947E-001	-5.04520E-006	0.00000E+000	4.90000E-001	-3.18408E-004	8	..........a	-327.66
	2749	0.55	4.79847E-001	-5.34521E-006	0.00000E+000	4.80000E-001	8.15923E-005	8	..........a	-327.66
	2750	0.5502	4.70047E-001	-5.63522E-006	0.00000E+000	4.70000E-001	-3.18408E-004	8	..........a	-327.66
	2751	0.5504	4.59747E-001	-5.88523E-006	0.00000E+000	4.60000E-001	-4.18408E-004	8	..........a	-327.66
	2752	0.5506	4.50047E-001	-6.10524E-006	0.00000E+000	4.50000E-001	8.15923E-005	8	..........a	-327.66
	2753	0.5508	4.39847E-001	-6.41525E-006	0.00000E+000	4.40000E-001	8.15923E-005	8	..........a	-327.66
	2754	0.551	4.29947E-001	-6.64526E-006	0.00000E+000	4.30000E-001	-3.18408E-004	8	..........a	-327.66
	2755	0.5512	4.19947E-001	-6.91527E-006	0.00000E+000	4.20000E-001	8.15923E-005	8	..........a	-327.66
	2756	0.5514	4.09747E-001	-7.17528E-006	0.00000E+000	4.10000E-001	-2.18408E-004	8	..........a	-327.66
	2757	0.5516	4.00147E-001	-7.40529E-006	0.00000E+000	4.00000E-001	8.15923E-005	8	..........a	-327.66
	2758	0.5518	3.90047E-001	-7.65530E-006	0.00000E+000	3.90000E-001	8.15923E-005	8	..........a	-327.66
	2759	0.552	3.80247E-001	-7.97531E-006	0.00000E+000	3.80000E-001	8.15923E-005	8	..........a	-327.66
	2760	0.5522	3.70047E-001	-8.20532E-006	0.00000E+000	3.70000E-001	8.15923E-005	8	..........a	-327.66
	2761	0.5524	3.60047E-001	-8.48533E-006	0.00000E+000	3.60000E-001	8.15923E-005	8	..........a	-327.66
	2762	0.5526	3.49847E-001	-8.70534E-006	0.00000E+000	3.50000E-001	-3.18408E-004	8	..........a	-327.66
	2763	0.5528	3.40047E-001	-8.97535E-006	0.00000E+000	3.40000E-001	8.15923E-005	8	..........a	-327.66
	2764	0.553	3.30047E-001	-9.22536E-006	0.00000E+000	3.30000E-001	8.15923E-005	8	..........a	-327.66
	2765	0.5532	3.19947E-001	-9.40537E-006	0.00000E+000	3.20000E-001	8.15923E-005	8	..........a	-327.66
	2766	0.5534	3.10047E-001	-9.68538E-006	0.00000E+000	3.10000E-001	-3.18408E-004	8	..........a	-327.66
	2767	0.5536	2.99947E-001	-9.95539E-006	0.00000E+000	3.00000E-001	-3.18408E-004	8	..........a	-327.66
	2768	0.5538	2.89947E-001	-1.01754E-005	0.00000E+000	2.90000E-001	8.15923E-005	8	..........a	-327.66
	2769	0.554	2.79947E-001	-1.03854E-005	0.00000E+000	2.80000E-001	8.15923E-005	8	..........a	-327.66
	2770	0.5542	2.70047E-001	-1.06554E-005	0.00000E+000	2.70000E-001	8.15923E-005	8	..........a	-327.66
	2771	0.5544	2.59947E-001	-1.09354E-005	0.00000E+000	2.60000E-001	8.15923E-005	8	..........a	-327.66
	2772	0.5546	2.49947E-001	-1.11254E-005	0.00000E+000	2.50000E-001	8.15923E-005	8	..........a	-327.66
	2773	0.5548	2.40047E-001	-1.13254E-005	0.00000E+000	2.40000E-001	-3.18408E-004	8	..........a	-327.66
	2774	0.555	2.29947E-001	-1.15354E-005	0.00000E+000	2.30000E-001	8.15923E-005	8	..........a	-327.66
	2775	0.5552	2.20247E-001	-1.17755E-005	0.00000E+000	2.20000E-001	8.15923E-005	8	..........a	-327.66
	2776	0.5554	2.10047E-001	-1.19555E-005	0.00000E+000	2.10000E-001	8.15923E-005	8	..........a	-327.66
	2777	0.5556	1.99947E-001	-1.21555E-005	0.00000E+000	2.00000E-001	-3.18408E-004	8	..........a	-327.66
	2778	0.5558	1.90047E-001	-1.23155E-005	0.00000E+000	1.90000E-001	8.15923E-005	8	..........a	-327.66
	2779	0.556	1.80247E-001	-1.25055E-005	0.00000E+000	1.80000E-001	8.15923E-005	8	..........a	-327.66
	2780	0.5562	1.69947E-001	-1.26655E-005	0.00000E+000	1.70000E-001	8.15923E-005	8	..........a	-327.66
	2781	0.5564	1.59947E-001	-1.28255E-005	0.00000E+000	1.60000E-001	8.15923E-005	8	..........a	-327.66
	2782	0.5566	1.50147E-001	-1.29755E-005	0.00000E+000	1.50000E-001	8.15923E-005	8	..........a	-327.66
	2783	0.5568	1.40047E-001	-1.31955E-005	0.00000E+000	1.40000E-001	8.15923E-005	8	..........a	-327.66
	2784	0.557	1.30047E-001	-1.32855E-005	0.00000E+000	1.30000E-001	8.15923E-005	8	..........a	-327.66
	2785	0.5572	1.20047E-001	-1.34355E-005	0.00000E+000	1.20000E-001	8.15923E-005	8	..........a	-327.66
	2786	0.5574	1.10047E-001	-1.35955E-005	0.00000E+000	1.10000E-001	8.15923E-005	8	..........a	-327.66
	2787	0.5576	1.00147E-001	-1.37255E-005	0.00000E+000	1.00000E-001	8.15923E-005	8	..........a	-327.66
	2788	0.5578	9.00471E-002	-1.38455E-005	0.00000E+000	9.00000E-002	8.15923E-005	8	..........a	-327.66
	2789	0.558	8.00471E-002	-1.39755E-005	0.00000E+000	8.00000E-002	8.15923E-005	8	..........a	-327.66
	2790	0.5582	7.00471E-002	-1.40955E-005	0.00000E+000	7.00000E-002	8.15923E-005	8	..........a	-327.66
	2791	0.5584	6.01471E-002	-1.42456E-005	0.00000E+000	6.00000E-002	8.15923E-005	8	..........a	-327.66
	2792	0.5586	5.00471E-002	-1.44056E-005	0.00000E+000	5.00000E-002	8.15923E-005	8	..........a	-327.66
	2793	0.5588	4.00471E-002	-1.45056E-005	0.00000E+000	4.00000E-002	8.15923E-005	8	..........a	-327.66
	2794	0.559	2.99471E-002	-1.47056E-005	0.00000E+000	3.00000E-002	8.15923E-005	8	..........a	-327.66
	2795	0.5592	2.01471E-002	-1.48556E-005	0.00000E+000	2.00000E-002	8.15923E-005	8	..........a	-327.66
	2796	0.5594	1.00471E-002	-1.50456E-005	0.00000E+000	1.00000E-002	8.15923E-005	8	..........a	-327.66
	2797	0.5596	4.71142E-005	-1.53356E-005	0.00000E+000	7.45058E-009	8.15923E-005	8	..........a	-327.66
	2798	0.5598	-9.95289E-003	-1.55256E-005	0.00000E+000	-1.00000E-002	8.15923E-005	8	..........a	-327.66
	2799	0.56	-2.01529E-002	-1.58556E-005	0.00000E+000	-2.00000E-002	8.15923E-005	8	..........a	-327.66
	2800	0.5602	-2.99529E-002	-1.61856E-005	0.00000E+000	-3.00000E-002	8.15923E-005	8	..........a	-327.66