File: data/raw/batch_data/20240424_C2_GM0016_HL03_E01_CV50.DTA
EXPLAIN
TAG	CV
TITLE	LABEL	Cyclic Voltammetry	Test &Identifier
DATE	LABEL	4/24/2024	Date
TIME	LABEL	16:47:50	Time
NOTES	NOTES	1	&Notes...

PSTAT	PSTAT	REF600P-43058	Potentiostat
VINIT	POTEN	0.00000E+000	T	Initial &E (V)
VLIMIT1	POTEN	-6.00000E-001	F	Scan Limit &1 (V)
VLIMIT2	POTEN	8.00000E-001	F	Scan Limit &2 (V)
VFINAL	POTEN	0.00000E+000	T	Final &E (V)
SCANRATE	QUANT	4.99999E+001	&Scan Rate (mV/s)
STEPSIZE	QUANT	1.00000E+001	St&ep Size (mV)
CYCLES	IQUANT	4	C&ycles (#)
IMODE	SELECTOR	0	I/E Range &Mode
IRANGE	QUANT	1.00000E-005	&Max Current (mA)
AREA	QUANT	1.00000E+000	Electrode &Area (cm^2)
ELECTRODETYPE	SELECTOR	0	Electrode Type
STRIPPING	TOGGLE	F	Used for Stripping
POLARITY	TOGGLE	F	Signal Polarity
CONDIT	TWOPARAM	F	1.50000E+001	0.00000E+000	Conditionin&g	Time(s)	E(V)
DELAY	TWOPARAM	T	1.00000E+001	0.00000E+000	Init. De&lay	Time(s)	Stab.(mV/s)
EQDELAY	QUANT	1.00000E+001	Equil. &Time (s)
IRCOMP	SELECTOR	0	IRCom&p
PFCOR	QUANT	5.00000E+001	PF Corr. (ohm)
SAMPLINGMODE	SELECTOR	1	Sampling &Mode
OCVCURVE	TABLE	39
	Pt	T	Vf	Vm	Ach	Over	Temp
	#	s	V vs. Ref.	V	V	bits	deg C
	0	0.258333	2.29930E-001	2.29930E-001	2.08126E-004	..........a	-327.66
	1	0.516667	2.29855E-001	2.26036E-001	2.02392E-004	..........a	-327.66
	2	0.775	2.29397E-001	2.22240E-001	2.05992E-004	..........a	-327.66
	3	1.03333	2.28091E-001	2.18526E-001	2.01192E-004	..........a	-327.66
	4	1.29167	2.25734E-001	2.14872E-001	2.02992E-004	..........a	-327.66
	5	1.55	2.22558E-001	2.11265E-001	2.08792E-004	..........a	-327.66
	6	1.80833	2.18972E-001	2.07696E-001	2.11392E-004	..........a	-327.66
	7	2.06667	2.15276E-001	2.04153E-001	2.03326E-004	..........a	-327.66
	8	2.325	2.11609E-001	2.00622E-001	2.01592E-004	..........a	-327.66
	9	2.58333	2.08000E-001	1.97105E-001	2.00459E-004	..........a	-327.66
	10	2.84167	2.04437E-001	1.93591E-001	2.12126E-004	..........a	-327.66
	11	3.1	2.00901E-001	1.90074E-001	1.99659E-004	..........a	-327.66
	12	3.35833	1.97378E-001	1.86556E-001	2.06126E-004	..........a	-327.66
	13	3.61667	1.93861E-001	1.83039E-001	2.07059E-004	..........a	-327.66
	14	3.875	1.90345E-001	1.79508E-001	2.06192E-004	..........a	-327.66
	15	4.13333	1.86827E-001	1.75973E-001	2.11259E-004	..........a	-327.66
	16	4.39167	1.83305E-001	1.72426E-001	2.12126E-004	..........a	-327.66
	17	4.65	1.79776E-001	1.68871E-001	2.13792E-004	..........a	-327.66
	18	4.90833	1.76240E-001	1.65305E-001	2.05926E-004	..........a	-327.66
	19	5.16667	1.72695E-001	1.61742E-001	2.08392E-004	..........a	-327.66
	20	5.425	1.69141E-001	1.58171E-001	2.07726E-004	..........a	-327.66
	21	5.68333	1.65581E-001	1.54590E-001	2.06259E-004	..........a	-327.66
	22	5.94167	1.62015E-001	1.51010E-001	2.11792E-004	..........a	-327.66
	23	6.2	1.58443E-001	1.47431E-001	2.09059E-004	..........a	-327.66
	24	6.45833	1.54867E-001	1.43861E-001	2.08326E-004	..........a	-327.66
	25	6.71667	1.51290E-001	1.40295E-001	2.05326E-004	..........a	-327.66
	26	6.975	1.47715E-001	1.36741E-001	2.03726E-004	..........a	-327.66
	27	7.23333	1.44144E-001	1.33204E-001	1.98926E-004	..........a	-327.66
	28	7.49167	1.40581E-001	1.29681E-001	2.04592E-004	..........a	-327.66
	29	7.75	1.37030E-001	1.26190E-001	2.03792E-004	..........a	-327.66
	30	8.00833	1.33493E-001	1.22726E-001	2.06192E-004	..........a	-327.66
	31	8.26667	1.29976E-001	1.19291E-001	2.07659E-004	..........a	-327.66
	32	8.525	1.26484E-001	1.15893E-001	2.00926E-004	..........a	-327.66
	33	8.78333	1.23019E-001	1.12528E-001	2.10792E-004	..........a	-327.66
	34	9.04167	1.19585E-001	1.09206E-001	2.05659E-004	..........a	-327.66
	35	9.3	1.16184E-001	1.05924E-001	2.07459E-004	..........a	-327.66
	36	9.5583	1.12820E-001	1.02688E-001	2.03392E-004	..........a	-327.66
	37	9.8167	1.09496E-001	9.94983E-002	2.16192E-004	..........a	-327.66
	38	10.075	1.06213E-001	9.63532E-002	2.09592E-004	..........a	-327.66
EOC	QUANT	0.1062132	Open Circuit (V)
PSTATMODEL	IQUANT	7	Pstat Model
PSTATSECTION	LABEL	REF600P-43058	Pstat Section
PSTATSERIALNO	LABEL	43058	Pstat Serial Number
CTRLMODE	IQUANT	1	Control Mode
ELECTROMETER	IQUANT	0	RE=0 or CS=1
IESTAB	IQUANT	2	I/E Stability
CASPEED	IQUANT	4	Control Amp Speed
CONVENTION	IQUANT	1	Current Convention
ICHRANGE	IQUANT	2	Ich Range
ICHRANGEMODE	TOGGLE	F	Ich Auto Range
ICHOFFSETENABLE	TOGGLE	F	Ich Offset Enable
ICHOFFSET	QUANT	0	Ich Offset (V)
ICHFILTER	IQUANT	2	Ich Filter
VCHRANGE	IQUANT	2	Vch Range
VCHRANGEMODE	TOGGLE	F	Vch Auto Range
VCHOFFSETENABLE	TOGGLE	F	Vch Offset Enable
VCHOFFSET	QUANT	0	Vch Offset (V)
VCHFILTER	IQUANT	2	Vch Filter
ACHRANGE	IQUANT	2	Ach Range
ACHOFFSETENABLE	TOGGLE	F	Ach Offset Enable
ACHOFFSET	QUANT	0	Ach Offset (V)
ACHFILTER	IQUANT	1	Ach Filter
IERANGELOWERLIMIT	IQUANT	1	I/E Range Lower Limit
IERANGEMODE	TOGGLE	T	I/E AutoRange
IERANGE	IQUANT	4	I/E Range
POSFEEDENABLE	TOGGLE	F	Positive Feedback IR Comp
POSFEEDRESISTANCE	QUANT	0	Positive Feedback Resistance (ohm)
ACHSELECT	IQUANT	4	Ach Select
SENSECABLEID	IQUANT	7	Sense Cable ID
PWRCABLEID	IQUANT	7	Power Cable ID
DCCALDATE	LABEL	3/22/2024	DC Calibration Date
ACCALDATE	LABEL	3/22/2024	AC Calibration Date
THERMOSELECT	IQUANT	1	Thermo Select
FRAMEWORKVERSION	LABEL	7.8.4	Framework Version
INSTRUMENTVERSION	LABEL	4.42	Instrument Version
CURVE1	TABLE
	Pt	T	Vf	Im	Vu	Sig	Ach	IERange	Over	Temp
	#	s	V vs. Ref.	A	V	V	V	#	bits	deg C
	0	0.2	1.06239E-001	1.31811E-008	0.00000E+000	1.06200E-001	9.49692E-004	5	..........a	-327.66
	3	0.8	7.63340E-002	4.62538E-009	0.00000E+000	7.62000E-002	9.55792E-004	5	..........a	-327.66
	6	1.4	4.62697E-002	-9.72680E-010	0.00000E+000	4.62000E-002	9.61292E-004	5	..........a	-327.66
	9	2	1.63269E-002	-5.99099E-009	0.00000E+000	1.62000E-002	9.38892E-004	5	..........a	-327.66
	12	2.6	-1.37826E-002	-1.07150E-008	0.00000E+000	-1.38000E-002	9.33392E-004	5	..........a	-327.66
	15	3.2	-4.37366E-002	-1.51526E-008	0.00000E+000	-4.38000E-002	9.43492E-004	5	..........a	-327.66
	18	3.8	-7.37571E-002	-1.94353E-008	0.00000E+000	-7.38000E-002	9.47192E-004	5	..........a	-327.66
	21	4.4	-1.03714E-001	-2.35356E-008	0.00000E+000	-1.03800E-001	9.48192E-004	5	..........a	-327.66
	24	5	-1.33774E-001	-2.72597E-008	0.00000E+000	-1.33800E-001	9.60692E-004	5	..........a	-327.66
	27	5.6	-1.63672E-001	-3.06923E-008	0.00000E+000	-1.63800E-001	9.49692E-004	5	..........a	-327.66
	30	6.2	-1.93773E-001	-3.39854E-008	0.00000E+000	-1.93800E-001	9.52592E-004	5	..........a	-327.66
	33	6.8	-2.23705E-001	-3.71460E-008	0.00000E+000	-2.23800E-001	9.49892E-004	5	..........a	-327.66
	36	7.4	-2.53732E-001	-4.02213E-008	0.00000E+000	-2.53800E-001	9.40292E-004	5	..........a	-327.66
	39	8	-2.83647E-001	-4.32831E-008	0.00000E+000	-2.83800E-001	9.45592E-004	5	..........a	-327.66
	42	8.6	-3.13735E-001	-4.62785E-008	0.00000E+000	-3.13800E-001	9.45792E-004	5	..........a	-327.66
	45	9.2	-3.43773E-001	-4.92358E-008	0.00000E+000	-3.43800E-001	9.39192E-004	5	..........a	-327.66
	48	9.8	-3.73716E-001	-5.22215E-008	0.00000E+000	-3.73800E-001	9.43192E-004	5	..........a	-327.66
	51	10.4	-4.03655E-001	-5.52249E-008	0.00000E+000	-4.03800E-001	9.58492E-004	5	..........a	-327.66
	54	11	-4.33705E-001	-5.82148E-008	0.00000E+000	-4.33800E-001	9.44792E-004	5	..........a	-327.66
	57	11.6	-4.63642E-001	-6.11708E-008	0.00000E+000	-4.63800E-001	9.55092E-004	5	..........a	-327.66
	60	12.2	-4.93675E-001	-6.42676E-008	0.00000E+000	-4.93800E-001	9.47392E-004	5	..........a	-327.66
	63	12.8	-5.23603E-001	-6.74915E-008	0.00000E+000	-5.23800E-001	9.41292E-004	5	..........a	-327.66
	66	13.4	-5.53679E-001	-7.09611E-008	0.00000E+000	-5.53800E-001	9.53392E-004	5	..........a	-327.66
	69	14	-5.83671E-001	-7.48483E-008	0.00000E+000	-5.83800E-001	9.67192E-004	5	..........a	-327.66
	72	14.6	-5.93675E-001	-6.68169E-008	0.00000E+000	-5.93800E-001	9.52392E-004	5	..........a	-327.66
	75	15.2	-5.63617E-001	-5.00911E-008	0.00000E+000	-5.63800E-001	9.63992E-004	5	..........a	-327.66
	78	15.8	-5.33677E-001	-3.99688E-008	0.00000E+000	-5.33800E-001	9.55692E-004	5	..........a	-327.66
	81	16.4	-5.03643E-001	-3.23151E-008	0.00000E+000	-5.03800E-001	9.62792E-004	5	..........a	-327.66
	84	17	-4.73708E-001	-2.59209E-008	0.00000E+000	-4.73800E-001	9.32992E-004	5	..........a	-327.66
	87	17.6	-4.43612E-001	-2.03514E-008	0.00000E+000	-4.43800E-001	9.65592E-004	5	..........a	-327.66
	90	18.2	-4.13699E-001	-1.54306E-008	0.00000E+000	-4.13800E-001	9.39692E-004	5	..........a	-327.66
	93	18.8	-3.83700E-001	-1.08811E-008	0.00000E+000	-3.83800E-001	9.67592E-004	5	..........a	-327.66
	96	19.4	-3.53758E-001	-6.61421E-009	0.00000E+000	-3.53800E-001	9.53392E-004	5	..........a	-327.66
	99	20	-3.23710E-001	-2.65340E-009	0.00000E+000	-3.23800E-001	9.34692E-004	5	..........a	-327.66
	102	20.6	-2.93730E-001	1.16369E-009	0.00000E+000	-2.93800E-001	9.58692E-004	5	..........a	-327.66
	105	21.2	-2.63671E-001	4.77042E-009	0.00000E+000	-2.63800E-001	9.59792E-004	5	..........a	-327.66
	108	21.8	-2.33763E-001	8.24370E-009	0.00000E+000	-2.33800E-001	9.52192E-004	5	..........a	-327.66
	111	22.4	-2.03692E-001	1.16601E-008	0.00000E+000	-2.03800E-001	9.34292E-004	5	..........a	-327.66
	114	23	-1.73772E-001	1.49315E-008	0.00000E+000	-1.73800E-001	9.51192E-004	5	..........a	-327.66
	117	23.6	-1.43793E-001	1.81634E-008	0.00000E+000	-1.43800E-001	9.47492E-004	5	..........a	-327.66
	120	24.2	-1.13764E-001	2.13562E-008	0.00000E+000	-1.13800E-001	9.44192E-004	5	..........a	-327.66
	123	24.8	-8.36680E-002	2.45262E-008	0.00000E+000	-8.38000E-002	9.54892E-004	5	..........a	-327.66
	126	25.4	-5.37750E-002	2.76433E-008	0.00000E+000	-5.38000E-002	9.55292E-004	5	..........a	-327.66
	129	26	-2.38041E-002	3.06705E-008	0.00000E+000	-2.38000E-002	9.61792E-004	5	..........a	-327.66
	132	26.6	6.22029E-003	3.37056E-008	0.00000E+000	6.20000E-003	9.47392E-004	5	..........a	-327.66
	135	27.2	3.62940E-002	3.67294E-008	0.00000E+000	3.62000E-002	9.41792E-004	5	..........a	-327.66
	138	27.8	6.62376E-002	3.99321E-008	0.00000E+000	6.62000E-002	9.35592E-004	5	..........a	-327.66
	141	28.4	9.61825E-002	4.33524E-008	0.00000E+000	9.62000E-002	9.60692E-004	5	..........a	-327.66
	144	29	1.26240E-001	4.68121E-008	0.00000E+000	1.26200E-001	9.59692E-004	5	..........a	-327.66
	147	29.6	1.56315E-001	5.01195E-008	0.00000E+000	1.56200E-001	9.54692E-004	5	..........a	-327.66
	150	30.2	1.86228E-001	5.32315E-008	0.00000E+000	1.86200E-001	9.46892E-004	5	..........a	-327.66
	153	30.8	2.16197E-001	5.62227E-008	0.00000E+000	2.16200E-001	9.47092E-004	5	..........a	-327.66
	156	31.4	2.46190E-001	5.89519E-008	0.00000E+000	2.46200E-001	9.52692E-004	5	..........a	-327.66
	159	32	2.76290E-001	6.16206E-008	0.00000E+000	2.76200E-001	9.52992E-004	5	..........a	-327.66
	162	32.6	3.06173E-001	6.44476E-008	0.00000E+000	3.06200E-001	9.49992E-004	5	..........a	-327.66
	165	33.2	3.36208E-001	6.75277E-008	0.00000E+000	3.36200E-001	9.67492E-004	5	..........a	-327.66
	168	33.8	3.66183E-001	7.07453E-008	0.00000E+000	3.66200E-001	9.46892E-004	5	..........a	-327.66
	171	34.4	3.96205E-001	7.41482E-008	0.00000E+000	3.96200E-001	9.36992E-004	5	..........a	-327.66
	174	35	4.26173E-001	7.78226E-008	0.00000E+000	4.26200E-001	9.48692E-004	5	..........a	-327.66
	177	35.6	4.56155E-001	8.17725E-008	0.00000E+000	4.56200E-001	9.52892E-004	5	..........a	-327.66
	180	36.2	4.86110E-001	8.61465E-008	0.00000E+000	4.86200E-001	9.59492E-004	5	..........a	-327.66
	183	36.8	5.16217E-001	9.06453E-008	0.00000E+000	5.16200E-001	9.40892E-004	5	..........a	-327.66
	186	37.4	5.46147E-001	9.50508E-008	0.00000E+000	5.46200E-001	9.34192E-004	5	..........a	-327.66
	189	38	5.76156E-001	9.91732E-008	0.00000E+000	5.76200E-001	9.46392E-004	5	..........a	-327.66
	192	38.6	6.06134E-001	1.03153E-007	0.00000E+000	6.06200E-001	9.51392E-004	5	..........a	-327.66
	195	39.2	6.36192E-001	1.07277E-007	0.00000E+000	6.36200E-001	9.37192E-004	5	..........a	-327.66
	198	39.8	6.66075E-001	1.11646E-007	0.00000E+000	6.66200E-001	9.43192E-004	5	..........a	-327.66
	201	40.4	6.96085E-001	1.16671E-007	0.00000E+000	6.96200E-001	9.36292E-004	5	..........a	-327.66
	204	41	7.26134E-001	1.22798E-007	0.00000E+000	7.26200E-001	9.27992E-004	5	..........a	-327.66
	207	41.6	7.56141E-001	1.31240E-007	0.00000E+000	7.56200E-001	9.40592E-004	5	..........a	-327.66
	210	42.2	7.86065E-001	1.43193E-007	0.00000E+000	7.86200E-001	9.53692E-004	5	..........a	-327.66
	211	42.4	7.96106E-001	1.48327E-007	0.00000E+000	7.96200E-001	9.34392E-004	5	..........a	-327.66
CURVE2	TABLE
	Pt	T	Vf	Im	Vu	Sig	Ach	IERange	Over	Temp
	#	s	V vs. Ref.	A	V	V	V	#	bits	deg C
	212	42.6	7.89967E-001	1.29643E-007	0.00000E+000	7.90000E-001	9.38892E-004	5	..........a	-327.66
	215	43.2	7.59894E-001	9.30037E-008	0.00000E+000	7.60000E-001	9.49192E-004	5	..........a	-327.66
	218	43.8	7.29948E-001	7.57606E-008	0.00000E+000	7.30000E-001	9.40192E-004	5	..........a	-327.66
	221	44.4	6.99888E-001	6.46855E-008	0.00000E+000	7.00000E-001	9.46892E-004	5	..........a	-327.66
	224	45	6.69969E-001	5.62266E-008	0.00000E+000	6.70000E-001	9.54392E-004	5	..........a	-327.66
	227	45.6	6.39887E-001	4.92186E-008	0.00000E+000	6.40000E-001	9.38592E-004	5	..........a	-327.66
	230	46.2	6.09956E-001	4.31087E-008	0.00000E+000	6.10000E-001	9.43492E-004	5	..........a	-327.66
	233	46.8	5.79994E-001	3.79849E-008	0.00000E+000	5.80000E-001	9.40592E-004	5	..........a	-327.66
	236	47.4	5.50013E-001	3.33615E-008	0.00000E+000	5.50000E-001	9.63492E-004	5	..........a	-327.66
	239	48	5.19957E-001	2.90386E-008	0.00000E+000	5.20000E-001	9.55292E-004	5	..........a	-327.66
	242	48.6	4.89955E-001	2.51994E-008	0.00000E+000	4.90000E-001	9.53392E-004	5	..........a	-327.66
	245	49.2	4.59974E-001	2.12616E-008	0.00000E+000	4.60000E-001	9.41392E-004	5	..........a	-327.66
	248	49.8	4.29995E-001	1.71872E-008	0.00000E+000	4.30000E-001	9.60092E-004	5	..........a	-327.66
	251	50.4	3.99958E-001	1.30854E-008	0.00000E+000	4.00000E-001	9.45292E-004	5	..........a	-327.66
	254	51	3.70032E-001	8.96101E-009	0.00000E+000	3.70000E-001	9.55492E-004	5	..........a	-327.66
	257	51.6	3.40071E-001	4.84929E-009	0.00000E+000	3.40000E-001	9.39292E-004	5	..........a	-327.66
	260	52.2	3.10015E-001	6.29230E-010	0.00000E+000	3.10000E-001	9.64792E-004	5	..........a	-327.66
	263	52.8	2.80039E-001	-3.96008E-009	0.00000E+000	2.80000E-001	9.42392E-004	5	..........a	-327.66
	266	53.4	2.50062E-001	-9.18160E-009	0.00000E+000	2.50000E-001	9.54392E-004	5	..........a	-327.66
	269	54	2.20026E-001	-1.48403E-008	0.00000E+000	2.20000E-001	9.31692E-004	5	..........a	-327.66
	272	54.6	1.90113E-001	-2.02266E-008	0.00000E+000	1.90000E-001	9.41092E-004	5	..........a	-327.66
	275	55.2	1.60077E-001	-2.39006E-008	0.00000E+000	1.60000E-001	9.74192E-004	5	..........a	-327.66
	278	55.8	1.30080E-001	-2.51549E-008	0.00000E+000	1.30000E-001	9.52092E-004	5	..........a	-327.66
	281	56.4	1.00106E-001	-2.44843E-008	0.00000E+000	1.00000E-001	9.38692E-004	5	..........a	-327.66
	284	57	7.00478E-002	-2.32153E-008	0.00000E+000	7.00000E-002	9.53392E-004	5	..........a	-327.66
	287	57.6	4.00994E-002	-2.27758E-008	0.00000E+000	4.00000E-002	9.38792E-004	5	..........a	-327.66
	290	58.2	1.01086E-002	-2.34093E-008	0.00000E+000	1.00000E-002	9.45392E-004	5	..........a	-327.66
	293	58.8	-1.98989E-002	-2.50217E-008	0.00000E+000	-2.00000E-002	9.45892E-004	5	..........a	-327.66
	296	59.4	-4.99148E-002	-2.72822E-008	0.00000E+000	-5.00000E-002	9.53392E-004	5	..........a	-327.66
	299	60	-7.99337E-002	-2.99325E-008	0.00000E+000	-8.00000E-002	9.47592E-004	5	..........a	-327.66
	302	60.6	-1.09955E-001	-3.27375E-008	0.00000E+000	-1.10000E-001	9.54192E-004	5	..........a	-327.66
	305	61.2	-1.39946E-001	-3.54350E-008	0.00000E+000	-1.40000E-001	9.47692E-004	5	..........a	-327.66
	308	61.8	-1.69898E-001	-3.81050E-008	0.00000E+000	-1.70000E-001	9.39092E-004	5	..........a	-327.66
	311	62.4	-1.99914E-001	-4.08456E-008	0.00000E+000	-2.00000E-001	9.58092E-004	5	..........a	-327.66
	314	63	-2.29923E-001	-4.35572E-008	0.00000E+000	-2.30000E-001	9.45392E-004	5	..........a	-327.66
	317	63.6	-2.59837E-001	-4.62427E-008	0.00000E+000	-2.60000E-001	9.41692E-004	5	..........a	-327.66
	320	64.2	-2.89890E-001	-4.89278E-008	0.00000E+000	-2.90000E-001	9.53092E-004	5	..........a	-327.66
	323	64.8	-3.19860E-001	-5.16120E-008	0.00000E+000	-3.20000E-001	9.60592E-004	5	..........a	-327.66
	326	65.4	-3.49875E-001	-5.42725E-008	0.00000E+000	-3.50000E-001	9.47992E-004	5	..........a	-327.66
	329	66	-3.79831E-001	-5.69952E-008	0.00000E+000	-3.80000E-001	9.36992E-004	5	..........a	-327.66
	332	66.6	-4.09848E-001	-5.97450E-008	0.00000E+000	-4.10000E-001	9.54292E-004	5	..........a	-327.66
	335	67.2	-4.39828E-001	-6.25150E-008	0.00000E+000	-4.40000E-001	9.47992E-004	5	..........a	-327.66
	338	67.8	-4.69838E-001	-6.53122E-008	0.00000E+000	-4.70000E-001	9.53092E-004	5	..........a	-327.66
	341	68.4	-4.99830E-001	-6.81803E-008	0.00000E+000	-5.00000E-001	9.41492E-004	5	..........a	-327.66
	344	69	-5.29839E-001	-7.12428E-008	0.00000E+000	-5.30000E-001	9.60292E-004	5	..........a	-327.66
	347	69.6	-5.59874E-001	-7.46631E-008	0.00000E+000	-5.60000E-001	9.66192E-004	5	..........a	-327.66
	350	70.2	-5.89888E-001	-7.87906E-008	0.00000E+000	-5.90000E-001	9.58892E-004	5	..........a	-327.66
	353	70.8	-5.79830E-001	-6.23960E-008	0.00000E+000	-5.80000E-001	9.40392E-004	5	..........a	-327.66
	356	71.4	-5.49863E-001	-4.88280E-008	0.00000E+000	-5.50000E-001	9.46592E-004	5	..........a	-327.66
	359	72	-5.19855E-001	-3.95128E-008	0.00000E+000	-5.20000E-001	9.59692E-004	5	..........a	-327.66
[...]
	1003	200.8	3.19999E-001	6.78608E-008	0.00000E+000	3.20000E-001	9.66492E-004	5	..........a	-327.66
	1006	201.4	3.50020E-001	7.09471E-008	0.00000E+000	3.50000E-001	9.69592E-004	5	..........a	-327.66
	1009	202	3.79994E-001	7.42113E-008	0.00000E+000	3.80000E-001	9.45292E-004	5	..........a	-327.66
	1012	202.6	4.09990E-001	7.76684E-008	0.00000E+000	4.10000E-001	9.66992E-004	5	..........a	-327.66
	1015	203.2	4.39935E-001	8.14989E-008	0.00000E+000	4.40000E-001	9.63992E-004	5	..........a	-327.66
	1018	203.8	4.69995E-001	8.56928E-008	0.00000E+000	4.70000E-001	9.63092E-004	5	..........a	-327.66
	1021	204.4	4.99971E-001	9.01313E-008	0.00000E+000	5.00000E-001	9.45092E-004	5	..........a	-327.66
	1024	205	5.29912E-001	9.47641E-008	0.00000E+000	5.30000E-001	9.57992E-004	5	..........a	-327.66
	1027	205.6	5.59931E-001	9.91608E-008	0.00000E+000	5.60000E-001	9.59692E-004	5	..........a	-327.66
	1030	206.2	5.89995E-001	1.03221E-007	0.00000E+000	5.90000E-001	9.63292E-004	5	..........a	-327.66
	1033	206.8	6.19900E-001	1.07258E-007	0.00000E+000	6.20000E-001	9.42592E-004	5	..........a	-327.66
	1036	207.4	6.49907E-001	1.11284E-007	0.00000E+000	6.50000E-001	9.66292E-004	5	..........a	-327.66
	1039	208	6.79896E-001	1.15790E-007	0.00000E+000	6.80000E-001	9.48292E-004	5	..........a	-327.66
	1042	208.6	7.09958E-001	1.21056E-007	0.00000E+000	7.10000E-001	9.73492E-004	5	..........a	-327.66
	1045	209.2	7.39900E-001	1.27814E-007	0.00000E+000	7.40000E-001	9.45592E-004	5	..........a	-327.66
	1048	209.8	7.69898E-001	1.38134E-007	0.00000E+000	7.70000E-001	9.73892E-004	5	..........a	-327.66
	1051	210.4	7.99851E-001	1.52034E-007	0.00000E+000	8.00000E-001	9.66692E-004	5	..........a	-327.66
CURVE5	TABLE
	Pt	T	Vf	Im	Vu	Sig	Ach	IERange	Over	Temp
	#	s	V vs. Ref.	A	V	V	V	#	bits	deg C
	1052	210.6	7.89964E-001	1.28520E-007	0.00000E+000	7.90000E-001	9.72392E-004	5	..........a	-327.66
	1053	210.8	7.79880E-001	1.13682E-007	0.00000E+000	7.80000E-001	9.48992E-004	5	..........a	-327.66
	1054	211	7.69915E-001	1.03024E-007	0.00000E+000	7.70000E-001	9.60392E-004	5	..........a	-327.66
	1055	211.2	7.59880E-001	9.48519E-008	0.00000E+000	7.60000E-001	9.62492E-004	5	..........a	-327.66
	1056	211.4	7.49976E-001	8.83267E-008	0.00000E+000	7.50000E-001	9.54192E-004	5	..........a	-327.66
	1057	211.6	7.39894E-001	8.28692E-008	0.00000E+000	7.40000E-001	9.51392E-004	5	..........a	-327.66
	1058	211.8	7.29986E-001	7.80916E-008	0.00000E+000	7.30000E-001	9.62392E-004	5	..........a	-327.66
	1059	212	7.19907E-001	7.41033E-008	0.00000E+000	7.20000E-001	9.75092E-004	5	..........a	-327.66
	1060	212.2	7.09982E-001	7.04672E-008	0.00000E+000	7.10000E-001	9.61592E-004	5	..........a	-327.66
	1061	212.4	6.99904E-001	6.71444E-008	0.00000E+000	7.00000E-001	9.43792E-004	5	..........a	-327.66
	1062	212.6	6.89885E-001	6.40639E-008	0.00000E+000	6.90000E-001	9.58992E-004	5	..........a	-327.66
	1063	212.8	6.79960E-001	6.11370E-008	0.00000E+000	6.80000E-001	9.48092E-004	5	..........a	-327.66
	1064	213	6.69965E-001	5.84493E-008	0.00000E+000	6.70000E-001	9.55092E-004	5	..........a	-327.66
	1065	213.2	6.59916E-001	5.59292E-008	0.00000E+000	6.60000E-001	9.46492E-004	5	..........a	-327.66
	1066	213.4	6.49885E-001	5.36177E-008	0.00000E+000	6.50000E-001	9.57292E-004	5	..........a	-327.66
	1067	213.6	6.39892E-001	5.13495E-008	0.00000E+000	6.40000E-001	9.66092E-004	5	..........a	-327.66
	1068	213.8	6.30001E-001	4.91967E-008	0.00000E+000	6.30000E-001	9.62692E-004	5	..........a	-327.66
	1069	214	6.19924E-001	4.72134E-008	0.00000E+000	6.20000E-001	9.50692E-004	5	..........a	-327.66
	1070	214.2	6.09963E-001	4.52261E-008	0.00000E+000	6.10000E-001	9.66192E-004	5	..........a	-327.66
	1071	214.4	5.99945E-001	4.33840E-008	0.00000E+000	6.00000E-001	9.46592E-004	5	..........a	-327.66
	1072	214.6	5.90006E-001	4.16976E-008	0.00000E+000	5.90000E-001	9.49992E-004	5	..........a	-327.66
	1073	214.8	5.79962E-001	4.00433E-008	0.00000E+000	5.80000E-001	9.38592E-004	5	..........a	-327.66
	1074	215	5.69951E-001	3.84681E-008	0.00000E+000	5.70000E-001	9.46192E-004	5	..........a	-327.66
	1075	215.2	5.59938E-001	3.69010E-008	0.00000E+000	5.60000E-001	9.57192E-004	5	..........a	-327.66
	1076	215.4	5.50010E-001	3.53174E-008	0.00000E+000	5.50000E-001	9.50392E-004	5	..........a	-327.66
	1077	215.6	5.39957E-001	3.37870E-008	0.00000E+000	5.40000E-001	9.50592E-004	5	..........a	-327.66
	1078	215.8	5.29980E-001	3.23398E-008	0.00000E+000	5.30000E-001	9.60992E-004	5	..........a	-327.66
	1079	216	5.19974E-001	3.10624E-008	0.00000E+000	5.20000E-001	9.64792E-004	5	..........a	-327.66
	1080	216.2	5.09990E-001	2.98467E-008	0.00000E+000	5.10000E-001	9.69792E-004	5	..........a	-327.66
	1081	216.4	5.00046E-001	2.85052E-008	0.00000E+000	5.00000E-001	9.35892E-004	5	..........a	-327.66
	1082	216.6	4.89956E-001	2.71988E-008	0.00000E+000	4.90000E-001	9.54092E-004	5	..........a	-327.66
	1083	216.8	4.79927E-001	2.58286E-008	0.00000E+000	4.80000E-001	9.63392E-004	5	..........a	-327.66
	1084	217	4.70022E-001	2.44677E-008	0.00000E+000	4.70000E-001	9.64792E-004	5	..........a	-327.66
	1085	217.2	4.59975E-001	2.30691E-008	0.00000E+000	4.60000E-001	9.62992E-004	5	..........a	-327.66
	1086	217.4	4.49785E-001	2.16283E-008	0.00000E+000	4.50000E-001	9.61092E-004	5	..........a	-327.66
	1087	217.6	4.39949E-001	2.01937E-008	0.00000E+000	4.40000E-001	9.60992E-004	5	..........a	-327.66
	1088	217.8	4.29985E-001	1.88343E-008	0.00000E+000	4.30000E-001	9.57392E-004	5	..........a	-327.66
	1089	218	4.19995E-001	1.73559E-008	0.00000E+000	4.20000E-001	9.58392E-004	5	..........a	-327.66
	1090	218.2	4.09978E-001	1.58966E-008	0.00000E+000	4.10000E-001	9.72892E-004	5	..........a	-327.66
	1091	218.4	3.99978E-001	1.44310E-008	0.00000E+000	4.00000E-001	9.78492E-004	5	..........a	-327.66
	1092	218.6	3.90019E-001	1.29826E-008	0.00000E+000	3.90000E-001	9.54992E-004	5	..........a	-327.66
	1093	218.8	3.80037E-001	1.15808E-008	0.00000E+000	3.80000E-001	9.41392E-004	5	..........a	-327.66
	1094	219	3.70035E-001	1.01380E-008	0.00000E+000	3.70000E-001	9.68892E-004	5	..........a	-327.66
	1095	219.2	3.59961E-001	8.64380E-009	0.00000E+000	3.60000E-001	9.71992E-004	5	..........a	-327.66
	1096	219.4	3.49995E-001	7.16614E-009	0.00000E+000	3.50000E-001	9.68492E-004	5	..........a	-327.66
	1097	219.6	3.40068E-001	5.71441E-009	0.00000E+000	3.40000E-001	9.55792E-004	5	..........a	-327.66
	1098	219.8	3.30010E-001	4.23111E-009	0.00000E+000	3.30000E-001	9.62192E-004	5	..........a	-327.66
	1099	220	3.20010E-001	2.70824E-009	0.00000E+000	3.20000E-001	9.54492E-004	5	..........a	-327.66
	1100	220.2	3.10029E-001	1.18461E-009	0.00000E+000	3.10000E-001	9.63792E-004	5	..........a	-327.66
	1101	220.4	3.00064E-001	-4.54390E-010	0.00000E+000	3.00000E-001	9.61392E-004	5	..........a	-327.66
	1102	220.6	2.90012E-001	-2.10165E-009	0.00000E+000	2.90000E-001	9.76592E-004	5	..........a	-327.66
	1103	220.8	2.80042E-001	-3.77699E-009	0.00000E+000	2.80000E-001	9.72892E-004	5	..........a	-327.66
	1104	221	2.70100E-001	-5.53215E-009	0.00000E+000	2.70000E-001	9.52992E-004	5	..........a	-327.66
	1105	221.2	2.60058E-001	-7.32304E-009	0.00000E+000	2.60000E-001	9.45092E-004	5	..........a	-327.66
	1106	221.4	2.50059E-001	-9.20538E-009	0.00000E+000	2.50000E-001	9.64792E-004	5	..........a	-327.66
	1107	221.6	2.40058E-001	-1.11506E-008	0.00000E+000	2.40000E-001	9.52992E-004	5	..........a	-327.66
	1108	221.8	2.30022E-001	-1.31128E-008	0.00000E+000	2.30000E-001	9.60392E-004	5	..........a	-327.66
	1109	222	2.20018E-001	-1.50175E-008	0.00000E+000	2.20000E-001	9.41392E-004	5	..........a	-327.66
	1110	222.2	2.10027E-001	-1.68994E-008	0.00000E+000	2.10000E-001	9.42192E-004	5	..........a	-327.66
	1111	222.4	2.00072E-001	-1.86793E-008	0.00000E+000	2.00000E-001	9.61392E-004	5	..........a	-327.66
	1112	222.6	1.90115E-001	-2.02665E-008	0.00000E+000	1.90000E-001	9.57992E-004	5	..........a	-327.66
	1113	222.8	1.80102E-001	-2.16786E-008	0.00000E+000	1.80000E-001	9.37392E-004	5	..........a	-327.66
	1114	223	1.70087E-001	-2.27708E-008	0.00000E+000	1.70000E-001	9.51792E-004	5	..........a	-327.66
	1115	223.2	1.60069E-001	-2.36224E-008	0.00000E+000	1.60000E-001	9.66792E-004	5	..........a	-327.66
	1116	223.4	1.50112E-001	-2.41795E-008	0.00000E+000	1.50000E-001	9.66692E-004	5	..........a	-327.66
	1117	223.6	1.40128E-001	-2.45247E-008	0.00000E+000	1.40000E-001	9.44492E-004	5	..........a	-327.66
	1118	223.8	1.30098E-001	-2.46573E-008	0.00000E+000	1.30000E-001	9.60792E-004	5	..........a	-327.66
	1119	224	1.20098E-001	-2.46130E-008	0.00000E+000	1.20000E-001	9.59492E-004	5	..........a	-327.66
	1120	224.2	1.10134E-001	-2.43944E-008	0.00000E+000	1.10000E-001	9.53092E-004	5	..........a	-327.66