File: data/raw/batch_data/20240509_K_GM0016_HL03_E03_CV50.DTA
EXPLAIN
TAG	CV
TITLE	LABEL	Cyclic Voltammetry	Test &Identifier
DATE	LABEL	5/9/2024	Date
TIME	LABEL	12:56:53	Time
NOTES	NOTES	1	&Notes...

PSTAT	PSTAT	REF600P-43058	Potentiostat
VINIT	POTEN	0.00000E+000	T	Initial &E (V)
VLIMIT1	POTEN	8.00000E-001	F	Scan Limit &1 (V)
VLIMIT2	POTEN	-6.00000E-001	F	Scan Limit &2 (V)
VFINAL	POTEN	0.00000E+000	T	Final &E (V)
SCANRATE	QUANT	4.99999E+001	&Scan Rate (mV/s)
STEPSIZE	QUANT	1.00000E+001	St&ep Size (mV)
CYCLES	IQUANT	4	C&ycles (#)
IMODE	SELECTOR	0	I/E Range &Mode
IRANGE	QUANT	1.00000E-005	&Max Current (mA)
AREA	QUANT	1.00000E+000	Electrode &Area (cm^2)
ELECTRODETYPE	SELECTOR	0	Electrode Type
STRIPPING	TOGGLE	F	Used for Stripping
POLARITY	TOGGLE	F	Signal Polarity
CONDIT	TWOPARAM	F	1.50000E+001	0.00000E+000	Conditionin&g	Time(s)	E(V)
DELAY	TWOPARAM	T	1.00000E+001	0.00000E+000	Init. De&lay	Time(s)	Stab.(mV/s)
EQDELAY	QUANT	1.00000E+001	Equil. &Time (s)
IRCOMP	SELECTOR	0	IRCom&p
PFCOR	QUANT	5.00000E+001	PF Corr. (ohm)
SAMPLINGMODE	SELECTOR	1	Sampling &Mode
OCVCURVE	TABLE	39
	Pt	T	Vf	Vm	Ach	Over	Temp
	#	s	V vs. Ref.	V	V	bits	deg C
	0	0.258333	-9.22112E-002	-9.22112E-002	2.38992E-004	..........a	-327.66
	1	0.516667	-9.22133E-002	-9.23194E-002	2.42592E-004	..........a	-327.66
	2	0.775	-9.22260E-002	-9.24251E-002	2.50592E-004	..........a	-327.66
	3	1.03333	-9.22622E-002	-9.25202E-002	2.35659E-004	..........a	-327.66
	4	1.29167	-9.23271E-002	-9.26347E-002	2.48126E-004	..........a	-327.66
	5	1.55	-9.24149E-002	-9.27318E-002	2.49592E-004	..........a	-327.66
	6	1.80833	-9.25148E-002	-9.28261E-002	2.54859E-004	..........a	-327.66
	7	2.06667	-9.26181E-002	-9.29238E-002	2.46259E-004	..........a	-327.66
	8	2.325	-9.27201E-002	-9.30310E-002	2.40792E-004	..........a	-327.66
	9	2.58333	-9.28200E-002	-9.31155E-002	2.43592E-004	..........a	-327.66
	10	2.84167	-9.29184E-002	-9.32063E-002	2.49659E-004	..........a	-327.66
	11	3.1	-9.30146E-002	-9.32927E-002	2.55126E-004	..........a	-327.66
	12	3.35833	-9.31077E-002	-9.33786E-002	2.37326E-004	..........a	-327.66
	13	3.61667	-9.31943E-002	-9.32886E-002	2.46259E-004	..........a	-327.66
	14	3.875	-9.32589E-002	-9.30704E-002	2.43259E-004	..........a	-327.66
	15	4.13333	-9.32713E-002	-9.28878E-002	2.44792E-004	..........a	-327.66
	16	4.39167	-9.32100E-002	-9.27226E-002	2.45392E-004	..........a	-327.66
	17	4.65	-9.30844E-002	-9.26237E-002	2.41459E-004	..........a	-327.66
	18	4.90833	-9.29300E-002	-9.25832E-002	2.55726E-004	..........a	-327.66
	19	5.16667	-9.27870E-002	-9.26132E-002	2.35526E-004	..........a	-327.66
	20	5.425	-9.26845E-002	-9.26753E-002	2.42526E-004	..........a	-327.66
	21	5.68333	-9.26364E-002	-9.27851E-002	2.32859E-004	..........a	-327.66
	22	5.94167	-9.26432E-002	-9.28951E-002	2.58726E-004	..........a	-327.66
	23	6.2	-9.26963E-002	-9.30183E-002	2.39392E-004	..........a	-327.66
	24	6.45833	-9.27830E-002	-9.31433E-002	2.52326E-004	..........a	-327.66
	25	6.71667	-9.28907E-002	-9.32838E-002	2.49259E-004	..........a	-327.66
	26	6.975	-9.30109E-002	-9.34131E-002	2.41726E-004	..........a	-327.66
	27	7.23333	-9.31384E-002	-9.35440E-002	2.49792E-004	..........a	-327.66
	28	7.49167	-9.32696E-002	-9.36730E-002	2.24059E-004	..........a	-327.66
	29	7.75	-9.34013E-002	-9.37951E-002	2.40526E-004	..........a	-327.66
	30	8.00833	-9.35318E-002	-9.39256E-002	2.41192E-004	..........a	-327.66
	31	8.26667	-9.36604E-002	-9.40494E-002	2.39859E-004	..........a	-327.66
	32	8.525	-9.37875E-002	-9.41688E-002	2.35126E-004	..........a	-327.66
	33	8.78333	-9.39131E-002	-9.42848E-002	2.37592E-004	..........a	-327.66
	34	9.04167	-9.40365E-002	-9.44051E-002	2.45592E-004	..........a	-327.66
	35	9.3	-9.41573E-002	-9.45112E-002	2.51592E-004	..........a	-327.66
	36	9.5583	-9.42755E-002	-9.46248E-002	2.31392E-004	..........a	-327.66
	37	9.8167	-9.43907E-002	-9.47287E-002	2.47192E-004	..........a	-327.66
	38	10.075	-9.45028E-002	-9.48200E-002	2.46592E-004	..........a	-327.66
EOC	QUANT	-0.0945028	Open Circuit (V)
PSTATMODEL	IQUANT	7	Pstat Model
PSTATSECTION	LABEL	REF600P-43058	Pstat Section
PSTATSERIALNO	LABEL	43058	Pstat Serial Number
CTRLMODE	IQUANT	1	Control Mode
ELECTROMETER	IQUANT	0	RE=0 or CS=1
IESTAB	IQUANT	2	I/E Stability
CASPEED	IQUANT	4	Control Amp Speed
CONVENTION	IQUANT	1	Current Convention
ICHRANGE	IQUANT	2	Ich Range
ICHRANGEMODE	TOGGLE	F	Ich Auto Range
ICHOFFSETENABLE	TOGGLE	F	Ich Offset Enable
ICHOFFSET	QUANT	0	Ich Offset (V)
ICHFILTER	IQUANT	2	Ich Filter
VCHRANGE	IQUANT	2	Vch Range
VCHRANGEMODE	TOGGLE	F	Vch Auto Range
VCHOFFSETENABLE	TOGGLE	F	Vch Offset Enable
VCHOFFSET	QUANT	0	Vch Offset (V)
VCHFILTER	IQUANT	2	Vch Filter
ACHRANGE	IQUANT	2	Ach Range
ACHOFFSETENABLE	TOGGLE	F	Ach Offset Enable
ACHOFFSET	QUANT	0	Ach Offset (V)
ACHFILTER	IQUANT	1	Ach Filter
IERANGELOWERLIMIT	IQUANT	1	I/E Range Lower Limit
IERANGEMODE	TOGGLE	T	I/E AutoRange
IERANGE	IQUANT	4	I/E Range
POSFEEDENABLE	TOGGLE	F	Positive Feedback IR Comp
POSFEEDRESISTANCE	QUANT	0	Positive Feedback Resistance (ohm)
ACHSELECT	IQUANT	4	Ach Select
SENSECABLEID	IQUANT	7	Sense Cable ID
PWRCABLEID	IQUANT	7	Power Cable ID
DCCALDATE	LABEL	3/22/2024	DC Calibration Date
ACCALDATE	LABEL	3/22/2024	AC Calibration Date
THERMOSELECT	IQUANT	1	Thermo Select
FRAMEWORKVERSION	LABEL	7.8.4	Framework Version
INSTRUMENTVERSION	LABEL	4.42	Instrument Version
CURVE1	TABLE
	Pt	T	Vf	Im	Vu	Sig	Ach	IERange	Over	Temp
	#	s	V vs. Ref.	A	V	V	V	#	bits	deg C
	0	0.2	-9.44419E-002	8.53228E-010	0.00000E+000	-9.45000E-002	1.01989E-003	5	..........a	-327.66
	3	0.8	-6.44054E-002	6.37558E-009	0.00000E+000	-6.45000E-002	1.00869E-003	5	..........a	-327.66
	6	1.4	-3.44719E-002	9.73978E-009	0.00000E+000	-3.45000E-002	9.83492E-004	5	..........a	-327.66
	9	2	-4.55931E-003	1.26741E-008	0.00000E+000	-4.49999E-003	9.95192E-004	5	..........a	-327.66
	12	2.6	2.54976E-002	1.55528E-008	0.00000E+000	2.55000E-002	1.01499E-003	5	..........a	-327.66
	15	3.2	5.55682E-002	1.85701E-008	0.00000E+000	5.55000E-002	1.02989E-003	5	..........a	-327.66
	18	3.8	8.55547E-002	2.18318E-008	0.00000E+000	8.55000E-002	9.85492E-004	5	..........a	-327.66
	21	4.4	1.15536E-001	2.56786E-008	0.00000E+000	1.15500E-001	1.01999E-003	5	..........a	-327.66
	24	5	1.45524E-001	3.09307E-008	0.00000E+000	1.45500E-001	1.01349E-003	5	..........a	-327.66
	27	5.6	1.75568E-001	7.49411E-008	0.00000E+000	1.75500E-001	1.01249E-003	5	..........a	-327.66
	30	6.2	2.05486E-001	4.51376E-008	0.00000E+000	2.05500E-001	1.01369E-003	5	..........a	-327.66
	33	6.8	2.35453E-001	4.86773E-008	0.00000E+000	2.35500E-001	1.03399E-003	5	..........a	-327.66
	36	7.4	2.65489E-001	5.43947E-008	0.00000E+000	2.65500E-001	1.00219E-003	5	..........a	-327.66
	39	8	2.95586E-001	6.04638E-008	0.00000E+000	2.95500E-001	1.00049E-003	5	..........a	-327.66
	42	8.6	3.25525E-001	6.71133E-008	0.00000E+000	3.25500E-001	9.81792E-004	5	..........a	-327.66
	45	9.2	3.55472E-001	7.48483E-008	0.00000E+000	3.55500E-001	1.01449E-003	5	..........a	-327.66
	48	9.8	3.85473E-001	8.38313E-008	0.00000E+000	3.85500E-001	1.00679E-003	5	..........a	-327.66
	51	10.4	4.15538E-001	9.40218E-008	0.00000E+000	4.15500E-001	9.97192E-004	5	..........a	-327.66
	54	11	4.45465E-001	1.04864E-007	0.00000E+000	4.45500E-001	9.80092E-004	5	..........a	-327.66
	57	11.6	4.75467E-001	1.16131E-007	0.00000E+000	4.75500E-001	1.00519E-003	5	..........a	-327.66
	60	12.2	5.05426E-001	1.27791E-007	0.00000E+000	5.05500E-001	1.02259E-003	5	..........a	-327.66
	63	12.8	5.35523E-001	1.39914E-007	0.00000E+000	5.35500E-001	9.89392E-004	5	..........a	-327.66
	66	13.4	5.65408E-001	1.52425E-007	0.00000E+000	5.65500E-001	1.00359E-003	5	..........a	-327.66
	69	14	5.95379E-001	1.65104E-007	0.00000E+000	5.95500E-001	9.86792E-004	5	..........a	-327.66
	72	14.6	6.25378E-001	1.77943E-007	0.00000E+000	6.25500E-001	9.96092E-004	5	..........a	-327.66
	75	15.2	6.55431E-001	1.91091E-007	0.00000E+000	6.55500E-001	1.01139E-003	5	..........a	-327.66
	78	15.8	6.85345E-001	2.04971E-007	0.00000E+000	6.85500E-001	9.92092E-004	5	..........a	-327.66
	81	16.4	7.15341E-001	2.20096E-007	0.00000E+000	7.15500E-001	1.01149E-003	5	..........a	-327.66
	84	17	7.45350E-001	2.36361E-007	0.00000E+000	7.45500E-001	1.01449E-003	5	..........a	-327.66
	87	17.6	7.75404E-001	2.53737E-007	0.00000E+000	7.75500E-001	9.81792E-004	5	..........a	-327.66
	90	18.2	7.85353E-001	2.21285E-007	0.00000E+000	7.85500E-001	1.02839E-003	5	..........a	-327.66
	93	18.8	7.55404E-001	1.50980E-007	0.00000E+000	7.55500E-001	9.92992E-004	5	..........a	-327.66
	96	19.4	7.25419E-001	1.12980E-007	0.00000E+000	7.25500E-001	1.01349E-003	5	..........a	-327.66
	99	20	6.95503E-001	8.76952E-008	0.00000E+000	6.95500E-001	1.01019E-003	5	..........a	-327.66
	102	20.6	6.65411E-001	6.90651E-008	0.00000E+000	6.65500E-001	9.92992E-004	5	..........a	-327.66
	105	21.2	6.35409E-001	5.46109E-008	0.00000E+000	6.35500E-001	1.02289E-003	5	..........a	-327.66
	108	21.8	6.05495E-001	4.29009E-008	0.00000E+000	6.05500E-001	9.99492E-004	5	..........a	-327.66
	111	22.4	5.75532E-001	3.31496E-008	0.00000E+000	5.75500E-001	9.80592E-004	5	..........a	-327.66
	114	23	5.45485E-001	2.47518E-008	0.00000E+000	5.45500E-001	9.97992E-004	5	..........a	-327.66
	117	23.6	5.15444E-001	1.73735E-008	0.00000E+000	5.15500E-001	9.96892E-004	5	..........a	-327.66
	120	24.2	4.85486E-001	1.07442E-008	0.00000E+000	4.85500E-001	9.90992E-004	5	..........a	-327.66
	123	24.8	4.55555E-001	4.56112E-009	0.00000E+000	4.55500E-001	1.00699E-003	5	..........a	-327.66
	126	25.4	4.25490E-001	-1.44553E-009	0.00000E+000	4.25500E-001	1.01869E-003	5	..........a	-327.66
	129	26	3.95552E-001	-7.40071E-009	0.00000E+000	3.95500E-001	1.01279E-003	5	..........a	-327.66
	132	26.6	3.65551E-001	-1.36070E-008	0.00000E+000	3.65500E-001	1.00379E-003	5	..........a	-327.66
	135	27.2	3.35599E-001	-2.00298E-008	0.00000E+000	3.35500E-001	1.00819E-003	5	..........a	-327.66
	138	27.8	3.05516E-001	-2.71232E-008	0.00000E+000	3.05500E-001	1.01519E-003	5	..........a	-327.66
	141	28.4	2.75526E-001	-3.49124E-008	0.00000E+000	2.75500E-001	1.01079E-003	5	..........a	-327.66
	144	29	2.45570E-001	-4.30114E-008	0.00000E+000	2.45500E-001	9.98792E-004	5	..........a	-327.66
	147	29.6	2.15627E-001	-5.03643E-008	0.00000E+000	2.15500E-001	1.02359E-003	5	..........a	-327.66
	150	30.2	1.85606E-001	-5.51211E-008	0.00000E+000	1.85500E-001	1.01689E-003	5	..........a	-327.66
	153	30.8	1.55595E-001	-5.53680E-008	0.00000E+000	1.55500E-001	1.00859E-003	5	..........a	-327.66
	156	31.4	1.25643E-001	-5.14023E-008	0.00000E+000	1.25500E-001	1.00959E-003	5	..........a	-327.66
	159	32	9.56207E-002	-4.61122E-008	0.00000E+000	9.55000E-002	1.01139E-003	5	..........a	-327.66
	162	32.6	6.56485E-002	-4.20372E-008	0.00000E+000	6.55000E-002	9.91092E-004	5	..........a	-327.66
	165	33.2	3.56160E-002	-3.84603E-008	0.00000E+000	3.55000E-002	9.93392E-004	5	..........a	-327.66
	168	33.8	5.62139E-003	-3.70175E-008	0.00000E+000	5.50000E-003	1.00149E-003	5	..........a	-327.66
	171	34.4	-2.43740E-002	-3.72367E-008	0.00000E+000	-2.45000E-002	1.01309E-003	5	..........a	-327.66
	174	35	-5.44463E-002	-3.76422E-008	0.00000E+000	-5.45000E-002	1.02639E-003	5	..........a	-327.66
	177	35.6	-8.44475E-002	-3.84039E-008	0.00000E+000	-8.45000E-002	9.97192E-004	5	..........a	-327.66
	180	36.2	-1.14432E-001	-3.97200E-008	0.00000E+000	-1.14500E-001	1.00609E-003	5	..........a	-327.66
	183	36.8	-1.44386E-001	-4.15517E-008	0.00000E+000	-1.44500E-001	9.94192E-004	5	..........a	-327.66
	186	37.4	-1.74401E-001	-4.43651E-008	0.00000E+000	-1.74500E-001	1.01659E-003	5	..........a	-327.66
	189	38	-2.04417E-001	-4.73800E-008	0.00000E+000	-2.04500E-001	1.02209E-003	5	..........a	-327.66
	192	38.6	-2.34340E-001	-5.02269E-008	0.00000E+000	-2.34500E-001	9.95192E-004	5	..........a	-327.66
	195	39.2	-2.64394E-001	-5.28308E-008	0.00000E+000	-2.64500E-001	1.01389E-003	5	..........a	-327.66
	198	39.8	-2.94358E-001	-5.58307E-008	0.00000E+000	-2.94500E-001	1.02919E-003	5	..........a	-327.66
	201	40.4	-3.24366E-001	-5.92237E-008	0.00000E+000	-3.24500E-001	9.97992E-004	5	..........a	-327.66
	204	41	-3.54359E-001	-6.27412E-008	0.00000E+000	-3.54500E-001	9.94692E-004	5	..........a	-327.66
	207	41.6	-3.84371E-001	-6.56974E-008	0.00000E+000	-3.84500E-001	1.02999E-003	5	..........a	-327.66
	210	42.2	-4.14361E-001	-6.96065E-008	0.00000E+000	-4.14500E-001	1.01319E-003	5	..........a	-327.66
	213	42.8	-4.44366E-001	-7.41298E-008	0.00000E+000	-4.44500E-001	1.01839E-003	5	..........a	-327.66
	216	43.4	-4.74307E-001	-7.90229E-008	0.00000E+000	-4.74500E-001	1.00079E-003	5	..........a	-327.66
	219	44	-5.04291E-001	-8.47579E-008	0.00000E+000	-5.04500E-001	1.01609E-003	5	..........a	-327.66
	222	44.6	-5.34341E-001	-9.05558E-008	0.00000E+000	-5.34500E-001	9.94592E-004	5	..........a	-327.66
	225	45.2	-5.64336E-001	-9.71774E-008	0.00000E+000	-5.64500E-001	1.01889E-003	5	..........a	-327.66
	228	45.8	-5.94258E-001	-1.04984E-007	0.00000E+000	-5.94500E-001	9.80392E-004	5	..........a	-327.66
CURVE2	TABLE
	Pt	T	Vf	Im	Vu	Sig	Ach	IERange	Over	Temp
	#	s	V vs. Ref.	A	V	V	V	#	bits	deg C
	229	46	-5.89840E-001	-9.53918E-008	0.00000E+000	-5.90000E-001	1.00239E-003	5	..........a	-327.66
	232	46.6	-5.59872E-001	-7.05759E-008	0.00000E+000	-5.60000E-001	1.00919E-003	5	..........a	-327.66
	235	47.2	-5.29833E-001	-5.59548E-008	0.00000E+000	-5.30000E-001	1.00639E-003	5	..........a	-327.66
	238	47.8	-4.99818E-001	-4.49450E-008	0.00000E+000	-5.00000E-001	9.80992E-004	5	..........a	-327.66
	241	48.4	-4.69840E-001	-3.57047E-008	0.00000E+000	-4.70000E-001	9.97892E-004	5	..........a	-327.66
	244	49	-4.39916E-001	-2.78500E-008	0.00000E+000	-4.40000E-001	1.00699E-003	5	..........a	-327.66
	247	49.6	-4.09864E-001	-2.09532E-008	0.00000E+000	-4.10000E-001	1.02529E-003	5	..........a	-327.66
	250	50.2	-3.79834E-001	-1.48596E-008	0.00000E+000	-3.80000E-001	1.00509E-003	5	..........a	-327.66
	253	50.8	-3.49865E-001	-9.60228E-009	0.00000E+000	-3.50000E-001	1.01079E-003	5	..........a	-327.66
	256	51.4	-3.19849E-001	-4.95919E-009	0.00000E+000	-3.20000E-001	9.99192E-004	5	..........a	-327.66
	259	52	-2.89912E-001	-6.23327E-010	0.00000E+000	-2.90000E-001	9.95792E-004	5	..........a	-327.66
	262	52.6	-2.59817E-001	3.18805E-009	0.00000E+000	-2.60000E-001	1.00259E-003	5	..........a	-327.66
	265	53.2	-2.29925E-001	6.71161E-009	0.00000E+000	-2.30000E-001	1.00539E-003	5	..........a	-327.66
	268	53.8	-1.99969E-001	9.91887E-009	0.00000E+000	-2.00000E-001	1.03589E-003	5	..........a	-327.66
	271	54.4	-1.69941E-001	1.29134E-008	0.00000E+000	-1.70000E-001	9.93292E-004	5	..........a	-327.66
	274	55	-1.39892E-001	1.58842E-008	0.00000E+000	-1.40000E-001	1.01039E-003	5	..........a	-327.66
	277	55.6	-1.09973E-001	1.86609E-008	0.00000E+000	-1.10000E-001	1.03389E-003	5	..........a	-327.66
	280	56.2	-7.99727E-002	2.14055E-008	0.00000E+000	-8.00000E-002	1.01379E-003	5	..........a	-327.66
	283	56.8	-4.99489E-002	2.41332E-008	0.00000E+000	-5.00000E-002	1.01129E-003	5	..........a	-327.66
	286	57.4	-1.99126E-002	2.69709E-008	0.00000E+000	-2.00000E-002	9.90192E-004	5	..........a	-327.66
	289	58	1.00930E-002	2.98585E-008	0.00000E+000	1.00000E-002	1.00059E-003	5	..........a	-327.66
	292	58.6	4.00149E-002	3.27746E-008	0.00000E+000	4.00000E-002	1.02649E-003	5	..........a	-327.66
	295	59.2	7.00227E-002	3.57664E-008	0.00000E+000	7.00000E-002	1.02959E-003	5	..........a	-327.66
	298	59.8	1.00107E-001	3.92362E-008	0.00000E+000	1.00000E-001	1.00419E-003	5	..........a	-327.66
	301	60.4	1.30047E-001	4.52416E-008	0.00000E+000	1.30000E-001	9.92092E-004	5	..........a	-327.66
	304	61	1.60026E-001	5.18497E-008	0.00000E+000	1.60000E-001	1.01779E-003	5	..........a	-327.66
	307	61.6	1.90065E-001	5.37114E-008	0.00000E+000	1.90000E-001	1.00509E-003	5	..........a	-327.66
	310	62.2	2.20017E-001	5.62256E-008	0.00000E+000	2.20000E-001	1.00429E-003	5	..........a	-327.66
	313	62.8	2.49974E-001	5.85684E-008	0.00000E+000	2.50000E-001	1.01909E-003	5	..........a	-327.66
	316	63.4	2.79951E-001	6.12219E-008	0.00000E+000	2.80000E-001	1.00099E-003	5	..........a	-327.66
	319	64	3.09982E-001	6.46597E-008	0.00000E+000	3.10000E-001	1.02569E-003	5	..........a	-327.66
	322	64.6	3.40044E-001	6.88183E-008	0.00000E+000	3.40000E-001	1.00419E-003	5	..........a	-327.66
	325	65.2	3.70019E-001	7.37458E-008	0.00000E+000	3.70000E-001	1.01839E-003	5	..........a	-327.66
	328	65.8	3.99974E-001	7.93712E-008	0.00000E+000	4.00000E-001	1.00639E-003	5	..........a	-327.66
	331	66.4	4.29967E-001	8.58247E-008	0.00000E+000	4.30000E-001	1.01739E-003	5	..........a	-327.66
	334	67	4.59974E-001	9.32501E-008	0.00000E+000	4.60000E-001	1.00549E-003	5	..........a	-327.66
	337	67.6	4.89928E-001	1.01845E-007	0.00000E+000	4.90000E-001	1.02179E-003	5	..........a	-327.66
	340	68.2	5.19956E-001	1.11779E-007	0.00000E+000	5.20000E-001	1.01399E-003	5	..........a	-327.66
	343	68.8	5.50002E-001	1.22725E-007	0.00000E+000	5.50000E-001	1.00539E-003	5	..........a	-327.66
	346	69.4	5.79978E-001	1.33854E-007	0.00000E+000	5.80000E-001	9.94692E-004	5	..........a	-327.66
	349	70	6.09928E-001	1.44920E-007	0.00000E+000	6.10000E-001	1.03399E-003	5	..........a	-327.66
	352	70.6	6.39879E-001	1.56437E-007	0.00000E+000	6.40000E-001	1.00089E-003	5	..........a	-327.66
	355	71.2	6.69954E-001	1.69372E-007	0.00000E+000	6.70000E-001	1.04319E-003	5	..........a	-327.66
	358	71.8	6.99875E-001	1.83912E-007	0.00000E+000	7.00000E-001	9.91892E-004	5	..........a	-327.66
	361	72.4	7.29894E-001	1.99653E-007	0.00000E+000	7.30000E-001	1.02709E-003	5	..........a	-327.66
[...]
	966	193.4	4.20053E-001	-1.31425E-008	0.00000E+000	4.20000E-001	1.00339E-003	5	..........a	-327.66
	969	194	3.90071E-001	-1.86736E-008	0.00000E+000	3.90000E-001	1.00219E-003	5	..........a	-327.66
	972	194.6	3.60058E-001	-2.46620E-008	0.00000E+000	3.60000E-001	1.00289E-003	5	..........a	-327.66
	975	195.2	3.30052E-001	-3.12656E-008	0.00000E+000	3.30000E-001	1.01079E-003	5	..........a	-327.66
	978	195.8	3.00117E-001	-3.85921E-008	0.00000E+000	3.00000E-001	1.00619E-003	5	..........a	-327.66
	981	196.4	2.70116E-001	-4.69074E-008	0.00000E+000	2.70000E-001	1.00089E-003	5	..........a	-327.66
	984	197	2.40097E-001	-5.52404E-008	0.00000E+000	2.40000E-001	1.00239E-003	5	..........a	-327.66
	987	197.6	2.10057E-001	-6.22560E-008	0.00000E+000	2.10000E-001	1.01699E-003	5	..........a	-327.66
	990	198.2	1.80152E-001	-6.56981E-008	0.00000E+000	1.80000E-001	9.94292E-004	5	..........a	-327.66
	993	198.8	1.50102E-001	-6.44342E-008	0.00000E+000	1.50000E-001	1.00349E-003	5	..........a	-327.66
	996	199.4	1.20062E-001	-5.86223E-008	0.00000E+000	1.20000E-001	1.01879E-003	5	..........a	-327.66
	999	200	9.01222E-002	-5.11511E-008	0.00000E+000	9.00000E-002	1.01379E-003	5	..........a	-327.66
	1002	200.6	6.01557E-002	-4.59487E-008	0.00000E+000	6.00000E-002	9.94792E-004	5	..........a	-327.66
	1005	201.2	3.00863E-002	-4.33594E-008	0.00000E+000	3.00000E-002	1.03849E-003	5	..........a	-327.66
	1008	201.8	4.04916E-005	-4.26272E-008	0.00000E+000	7.45058E-009	1.01389E-003	5	..........a	-327.66
	1011	202.4	-2.99148E-002	-4.22058E-008	0.00000E+000	-3.00000E-002	1.01579E-003	5	..........a	-327.66
	1014	203	-5.98363E-002	-4.27007E-008	0.00000E+000	-6.00000E-002	9.88892E-004	5	..........a	-327.66
	1017	203.6	-8.98745E-002	-4.38706E-008	0.00000E+000	-9.00000E-002	1.00499E-003	5	..........a	-327.66
	1020	204.2	-1.19871E-001	-4.45190E-008	0.00000E+000	-1.20000E-001	1.02939E-003	5	..........a	-327.66
	1023	204.8	-1.49901E-001	-4.65903E-008	0.00000E+000	-1.50000E-001	1.01289E-003	5	..........a	-327.66
	1026	205.4	-1.79852E-001	-4.87169E-008	0.00000E+000	-1.80000E-001	1.00829E-003	5	..........a	-327.66
	1029	206	-2.09871E-001	-5.04900E-008	0.00000E+000	-2.10000E-001	1.01399E-003	5	..........a	-327.66
	1032	206.6	-2.39894E-001	-5.28212E-008	0.00000E+000	-2.40000E-001	1.01099E-003	5	..........a	-327.66
	1035	207.2	-2.69844E-001	-5.52935E-008	0.00000E+000	-2.70000E-001	1.00299E-003	5	..........a	-327.66
	1038	207.8	-2.99826E-001	-5.86393E-008	0.00000E+000	-3.00000E-001	1.01289E-003	5	..........a	-327.66
	1041	208.4	-3.29869E-001	-6.20243E-008	0.00000E+000	-3.30000E-001	1.02779E-003	5	..........a	-327.66
	1044	209	-3.59855E-001	-6.55180E-008	0.00000E+000	-3.60000E-001	1.01839E-003	5	..........a	-327.66
	1047	209.6	-3.89907E-001	-6.82133E-008	0.00000E+000	-3.90000E-001	1.01819E-003	5	..........a	-327.66
	1050	210.2	-4.19761E-001	-7.16945E-008	0.00000E+000	-4.20000E-001	1.02549E-003	5	..........a	-327.66
	1053	210.8	-4.49823E-001	-7.59507E-008	0.00000E+000	-4.50000E-001	9.93792E-004	5	..........a	-327.66
	1056	211.4	-4.79821E-001	-8.07093E-008	0.00000E+000	-4.80000E-001	1.02279E-003	5	..........a	-327.66
	1059	212	-5.09825E-001	-8.58155E-008	0.00000E+000	-5.10000E-001	1.00839E-003	5	..........a	-327.66
	1062	212.6	-5.39753E-001	-9.13585E-008	0.00000E+000	-5.40000E-001	9.99692E-004	5	..........a	-327.66
	1065	213.2	-5.69835E-001	-9.76436E-008	0.00000E+000	-5.70000E-001	1.00379E-003	5	..........a	-327.66
	1068	213.8	-5.99826E-001	-1.04803E-007	0.00000E+000	-6.00000E-001	1.00809E-003	5	..........a	-327.66
CURVE5	TABLE
	Pt	T	Vf	Im	Vu	Sig	Ach	IERange	Over	Temp
	#	s	V vs. Ref.	A	V	V	V	#	bits	deg C
	1069	214	-5.89836E-001	-9.08066E-008	0.00000E+000	-5.90000E-001	1.01569E-003	5	..........a	-327.66
	1070	214.2	-5.79794E-001	-8.15387E-008	0.00000E+000	-5.80000E-001	1.00129E-003	5	..........a	-327.66
	1071	214.4	-5.69893E-001	-7.41736E-008	0.00000E+000	-5.70000E-001	1.01269E-003	5	..........a	-327.66
	1072	214.6	-5.59889E-001	-6.79285E-008	0.00000E+000	-5.60000E-001	1.00939E-003	5	..........a	-327.66
	1073	214.8	-5.49861E-001	-6.25825E-008	0.00000E+000	-5.50000E-001	1.00289E-003	5	..........a	-327.66
	1074	215	-5.39776E-001	-5.77634E-008	0.00000E+000	-5.40000E-001	1.01149E-003	5	..........a	-327.66
	1075	215.2	-5.29848E-001	-5.33981E-008	0.00000E+000	-5.30000E-001	1.01369E-003	5	..........a	-327.66
	1076	215.4	-5.19812E-001	-4.93710E-008	0.00000E+000	-5.20000E-001	1.00649E-003	5	..........a	-327.66
	1077	215.6	-5.09838E-001	-4.56942E-008	0.00000E+000	-5.10000E-001	1.01539E-003	5	..........a	-327.66
	1078	215.8	-4.99823E-001	-4.23077E-008	0.00000E+000	-5.00000E-001	1.00469E-003	5	..........a	-327.66
	1079	216	-4.89841E-001	-3.90624E-008	0.00000E+000	-4.90000E-001	1.01559E-003	5	..........a	-327.66
	1080	216.2	-4.79850E-001	-3.60805E-008	0.00000E+000	-4.80000E-001	1.01959E-003	5	..........a	-327.66
	1081	216.4	-4.69894E-001	-3.32702E-008	0.00000E+000	-4.70000E-001	9.98092E-004	5	..........a	-327.66
	1082	216.6	-4.59806E-001	-3.04445E-008	0.00000E+000	-4.60000E-001	1.00269E-003	5	..........a	-327.66
	1083	216.8	-4.49853E-001	-2.79399E-008	0.00000E+000	-4.50000E-001	1.01169E-003	5	..........a	-327.66
	1084	217	-4.39858E-001	-2.54926E-008	0.00000E+000	-4.40000E-001	1.02249E-003	5	..........a	-327.66
	1085	217.2	-4.29872E-001	-2.33621E-008	0.00000E+000	-4.30000E-001	1.03199E-003	5	..........a	-327.66
	1086	217.4	-4.19794E-001	-2.16816E-008	0.00000E+000	-4.20000E-001	9.93292E-004	5	..........a	-327.66
	1087	217.6	-4.09872E-001	-1.95364E-008	0.00000E+000	-4.10000E-001	1.02109E-003	5	..........a	-327.66
	1088	217.8	-3.99886E-001	-1.74990E-008	0.00000E+000	-4.00000E-001	1.00009E-003	5	..........a	-327.66
	1089	218	-3.89936E-001	-1.55821E-008	0.00000E+000	-3.90000E-001	1.03309E-003	5	..........a	-327.66
	1090	218.2	-3.79835E-001	-1.36521E-008	0.00000E+000	-3.80000E-001	1.00779E-003	5	..........a	-327.66
	1091	218.4	-3.69849E-001	-1.18060E-008	0.00000E+000	-3.70000E-001	1.02179E-003	5	..........a	-327.66
	1092	218.6	-3.59893E-001	-1.00426E-008	0.00000E+000	-3.60000E-001	1.02139E-003	5	..........a	-327.66
	1093	218.8	-3.49856E-001	-8.31897E-009	0.00000E+000	-3.50000E-001	1.01169E-003	5	..........a	-327.66
	1094	219	-3.39815E-001	-6.70540E-009	0.00000E+000	-3.40000E-001	9.97792E-004	5	..........a	-327.66
	1095	219.2	-3.29865E-001	-5.10633E-009	0.00000E+000	-3.30000E-001	1.00939E-003	5	..........a	-327.66
	1096	219.4	-3.19865E-001	-3.51918E-009	0.00000E+000	-3.20000E-001	1.01139E-003	5	..........a	-327.66
	1097	219.6	-3.09951E-001	-2.08217E-009	0.00000E+000	-3.10000E-001	1.01149E-003	5	..........a	-327.66
	1098	219.8	-2.99861E-001	-6.90099E-010	0.00000E+000	-3.00000E-001	9.97692E-004	5	..........a	-327.66
	1099	220	-2.89917E-001	7.51465E-010	0.00000E+000	-2.90000E-001	1.01269E-003	5	..........a	-327.66
	1100	220.2	-2.79918E-001	2.11659E-009	0.00000E+000	-2.80000E-001	1.01649E-003	5	..........a	-327.66
	1101	220.4	-2.69871E-001	3.37925E-009	0.00000E+000	-2.70000E-001	1.02049E-003	5	..........a	-327.66
	1102	220.6	-2.59813E-001	4.63833E-009	0.00000E+000	-2.60000E-001	1.00449E-003	5	..........a	-327.66
	1103	220.8	-2.49879E-001	5.82109E-009	0.00000E+000	-2.50000E-001	1.01589E-003	5	..........a	-327.66
	1104	221	-2.39915E-001	6.98715E-009	0.00000E+000	-2.40000E-001	1.02259E-003	5	..........a	-327.66
	1105	221.2	-2.29973E-001	8.13164E-009	0.00000E+000	-2.30000E-001	1.01919E-003	5	..........a	-327.66
	1106	221.4	-2.19874E-001	9.21877E-009	0.00000E+000	-2.20000E-001	1.00579E-003	5	..........a	-327.66
	1107	221.6	-2.09927E-001	1.02931E-008	0.00000E+000	-2.10000E-001	1.01039E-003	5	..........a	-327.66
	1108	221.8	-1.99970E-001	1.13680E-008	0.00000E+000	-2.00000E-001	1.02139E-003	5	..........a	-327.66
	1109	222	-1.90219E-001	1.24044E-008	0.00000E+000	-1.90000E-001	9.98692E-004	5	..........a	-327.66
	1110	222.2	-1.79915E-001	1.34473E-008	0.00000E+000	-1.80000E-001	9.90792E-004	5	..........a	-327.66
	1111	222.4	-1.69895E-001	1.44443E-008	0.00000E+000	-1.70000E-001	9.98792E-004	5	..........a	-327.66
	1112	222.6	-1.59991E-001	1.54021E-008	0.00000E+000	-1.60000E-001	1.00739E-003	5	..........a	-327.66
	1113	222.8	-1.49982E-001	1.64116E-008	0.00000E+000	-1.50000E-001	1.01249E-003	5	..........a	-327.66
	1114	223	-1.39897E-001	1.73628E-008	0.00000E+000	-1.40000E-001	1.01959E-003	5	..........a	-327.66
	1115	223.2	-1.29975E-001	1.83132E-008	0.00000E+000	-1.30000E-001	1.03709E-003	5	..........a	-327.66
	1116	223.4	-1.19959E-001	1.92588E-008	0.00000E+000	-1.20000E-001	1.01759E-003	5	..........a	-327.66
	1117	223.6	-1.10015E-001	2.01943E-008	0.00000E+000	-1.10000E-001	1.02429E-003	5	..........a	-327.66
	1118	223.8	-9.99073E-002	2.10968E-008	0.00000E+000	-1.00000E-001	1.00669E-003	5	..........a	-327.66