File: data/raw/batch_data/20240509_ZZZC_GM0016_HL03_E14_CV50.DTA
EXPLAIN
TAG	CV
TITLE	LABEL	Cyclic Voltammetry	Test &Identifier
DATE	LABEL	5/9/2024	Date
TIME	LABEL	15:23:37	Time
NOTES	NOTES	1	&Notes...

PSTAT	PSTAT	REF600P-43058	Potentiostat
VINIT	POTEN	0.00000E+000	T	Initial &E (V)
VLIMIT1	POTEN	8.00000E-001	F	Scan Limit &1 (V)
VLIMIT2	POTEN	-6.00000E-001	F	Scan Limit &2 (V)
VFINAL	POTEN	0.00000E+000	T	Final &E (V)
SCANRATE	QUANT	4.99999E+001	&Scan Rate (mV/s)
STEPSIZE	QUANT	1.00000E+001	St&ep Size (mV)
CYCLES	IQUANT	4	C&ycles (#)
IMODE	SELECTOR	0	I/E Range &Mode
IRANGE	QUANT	1.00000E-005	&Max Current (mA)
AREA	QUANT	1.00000E+000	Electrode &Area (cm^2)
ELECTRODETYPE	SELECTOR	0	Electrode Type
STRIPPING	TOGGLE	F	Used for Stripping
POLARITY	TOGGLE	F	Signal Polarity
CONDIT	TWOPARAM	F	1.50000E+001	0.00000E+000	Conditionin&g	Time(s)	E(V)
DELAY	TWOPARAM	T	1.00000E+001	0.00000E+000	Init. De&lay	Time(s)	Stab.(mV/s)
EQDELAY	QUANT	1.00000E+001	Equil. &Time (s)
IRCOMP	SELECTOR	0	IRCom&p
PFCOR	QUANT	5.00000E+001	PF Corr. (ohm)
SAMPLINGMODE	SELECTOR	1	Sampling &Mode
OCVCURVE	TABLE	39
	Pt	T	Vf	Vm	Ach	Over	Temp
	#	s	V vs. Ref.	V	V	bits	deg C
	0	0.258333	-1.52945E-001	-1.52945E-001	2.02992E-004	..........a	-327.66
	1	0.516667	-1.52949E-001	-1.53156E-001	2.07526E-004	..........a	-327.66
	2	0.775	-1.52974E-001	-1.53375E-001	2.11259E-004	..........a	-327.66
	3	1.03333	-1.53046E-001	-1.53586E-001	2.04126E-004	..........a	-327.66
	4	1.29167	-1.53178E-001	-1.53801E-001	2.08659E-004	..........a	-327.66
	5	1.55	-1.53358E-001	-1.54021E-001	2.15126E-004	..........a	-327.66
	6	1.80833	-1.53565E-001	-1.54223E-001	2.06859E-004	..........a	-327.66
	7	2.06667	-1.53780E-001	-1.54414E-001	2.12792E-004	..........a	-327.66
	8	2.325	-1.53993E-001	-1.54596E-001	2.11726E-004	..........a	-327.66
	9	2.58333	-1.54198E-001	-1.54806E-001	2.05859E-004	..........a	-327.66
	10	2.84167	-1.54396E-001	-1.54993E-001	2.12859E-004	..........a	-327.66
	11	3.1	-1.54591E-001	-1.55185E-001	2.01792E-004	..........a	-327.66
	12	3.35833	-1.54785E-001	-1.55423E-001	2.04659E-004	..........a	-327.66
	13	3.61667	-1.54984E-001	-1.55642E-001	2.08726E-004	..........a	-327.66
	14	3.875	-1.55189E-001	-1.55846E-001	2.12592E-004	..........a	-327.66
	15	4.13333	-1.55402E-001	-1.56085E-001	2.06259E-004	..........a	-327.66
	16	4.39167	-1.55619E-001	-1.56281E-001	2.12192E-004	..........a	-327.66
	17	4.65	-1.55841E-001	-1.56705E-001	2.06859E-004	..........a	-327.66
	18	4.90833	-1.56083E-001	-1.57138E-001	2.07192E-004	..........a	-327.66
	19	5.16667	-1.56371E-001	-1.57657E-001	1.98859E-004	..........a	-327.66
	20	5.425	-1.56721E-001	-1.57897E-001	2.00126E-004	..........a	-327.66
	21	5.68333	-1.57111E-001	-1.58105E-001	2.07192E-004	..........a	-327.66
	22	5.94167	-1.57488E-001	-1.58305E-001	1.98326E-004	..........a	-327.66
	23	6.2	-1.57810E-001	-1.58495E-001	2.06392E-004	..........a	-327.66
	24	6.45833	-1.58071E-001	-1.58697E-001	1.98926E-004	..........a	-327.66
	25	6.71667	-1.58289E-001	-1.58887E-001	2.06259E-004	..........a	-327.66
	26	6.975	-1.58488E-001	-1.59069E-001	2.10792E-004	..........a	-327.66
	27	7.23333	-1.58682E-001	-1.59361E-001	2.05926E-004	..........a	-327.66
	28	7.49167	-1.58881E-001	-1.59543E-001	2.14326E-004	..........a	-327.66
	29	7.75	-1.59091E-001	-1.59756E-001	2.05326E-004	..........a	-327.66
	30	8.00833	-1.59309E-001	-1.59949E-001	1.94792E-004	..........a	-327.66
	31	8.26667	-1.59523E-001	-1.60096E-001	2.08792E-004	..........a	-327.66
	32	8.525	-1.59725E-001	-1.60256E-001	2.03526E-004	..........a	-327.66
	33	8.78333	-1.59912E-001	-1.60424E-001	2.03859E-004	..........a	-327.66
	34	9.04167	-1.60085E-001	-1.60599E-001	1.95726E-004	..........a	-327.66
	35	9.3	-1.60251E-001	-1.60765E-001	1.99792E-004	..........a	-327.66
	36	9.5583	-1.60417E-001	-1.60963E-001	2.01659E-004	..........a	-327.66
	37	9.8167	-1.60588E-001	-1.61145E-001	2.00392E-004	..........a	-327.66
	38	10.075	-1.60764E-001	-1.61351E-001	1.94726E-004	..........a	-327.66
EOC	QUANT	-0.1607644	Open Circuit (V)
PSTATMODEL	IQUANT	7	Pstat Model
PSTATSECTION	LABEL	REF600P-43058	Pstat Section
PSTATSERIALNO	LABEL	43058	Pstat Serial Number
CTRLMODE	IQUANT	1	Control Mode
ELECTROMETER	IQUANT	0	RE=0 or CS=1
IESTAB	IQUANT	2	I/E Stability
CASPEED	IQUANT	4	Control Amp Speed
CONVENTION	IQUANT	1	Current Convention
ICHRANGE	IQUANT	2	Ich Range
ICHRANGEMODE	TOGGLE	F	Ich Auto Range
ICHOFFSETENABLE	TOGGLE	F	Ich Offset Enable
ICHOFFSET	QUANT	0	Ich Offset (V)
ICHFILTER	IQUANT	2	Ich Filter
VCHRANGE	IQUANT	2	Vch Range
VCHRANGEMODE	TOGGLE	F	Vch Auto Range
VCHOFFSETENABLE	TOGGLE	F	Vch Offset Enable
VCHOFFSET	QUANT	0	Vch Offset (V)
VCHFILTER	IQUANT	2	Vch Filter
ACHRANGE	IQUANT	2	Ach Range
ACHOFFSETENABLE	TOGGLE	F	Ach Offset Enable
ACHOFFSET	QUANT	0	Ach Offset (V)
ACHFILTER	IQUANT	1	Ach Filter
IERANGELOWERLIMIT	IQUANT	1	I/E Range Lower Limit
IERANGEMODE	TOGGLE	T	I/E AutoRange
IERANGE	IQUANT	4	I/E Range
POSFEEDENABLE	TOGGLE	F	Positive Feedback IR Comp
POSFEEDRESISTANCE	QUANT	0	Positive Feedback Resistance (ohm)
ACHSELECT	IQUANT	4	Ach Select
SENSECABLEID	IQUANT	7	Sense Cable ID
PWRCABLEID	IQUANT	7	Power Cable ID
DCCALDATE	LABEL	3/22/2024	DC Calibration Date
ACCALDATE	LABEL	3/22/2024	AC Calibration Date
THERMOSELECT	IQUANT	1	Thermo Select
FRAMEWORKVERSION	LABEL	7.8.4	Framework Version
INSTRUMENTVERSION	LABEL	4.42	Instrument Version
CURVE1	TABLE
	Pt	T	Vf	Im	Vu	Sig	Ach	IERange	Over	Temp
	#	s	V vs. Ref.	A	V	V	V	#	bits	deg C
	0	0.2	-1.60630E-001	4.88405E-009	0.00000E+000	-1.60750E-001	9.47792E-004	5	..........a	-327.66
	3	0.8	-1.30752E-001	5.23996E-008	0.00000E+000	-1.30750E-001	9.54792E-004	5	..........a	-327.66
	6	1.4	-1.00748E-001	7.90134E-008	0.00000E+000	-1.00750E-001	9.57192E-004	5	..........a	-327.66
	9	2	-7.07257E-002	9.93902E-008	0.00000E+000	-7.07500E-002	9.55492E-004	5	..........a	-327.66
	12	2.6	-4.07460E-002	1.18524E-007	0.00000E+000	-4.07500E-002	9.41592E-004	5	..........a	-327.66
	15	3.2	-1.07408E-002	1.35668E-007	0.00000E+000	-1.07500E-002	9.48492E-004	5	..........a	-327.66
	18	3.8	1.91558E-002	1.50991E-007	0.00000E+000	1.92500E-002	9.51892E-004	5	..........a	-327.66
	21	4.4	4.91852E-002	1.68518E-007	0.00000E+000	4.92500E-002	9.57592E-004	5	..........a	-327.66
	24	5	7.92294E-002	1.89268E-007	0.00000E+000	7.92500E-002	9.51192E-004	5	..........a	-327.66
	27	5.6	1.09183E-001	2.06781E-007	0.00000E+000	1.09250E-001	9.59092E-004	5	..........a	-327.66
	30	6.2	1.39210E-001	2.29631E-007	0.00000E+000	1.39250E-001	9.49192E-004	5	..........a	-327.66
	33	6.8	1.69214E-001	2.54158E-007	0.00000E+000	1.69250E-001	9.65992E-004	5	..........a	-327.66
	36	7.4	1.99174E-001	2.81071E-007	0.00000E+000	1.99250E-001	9.51092E-004	5	..........a	-327.66
	39	8	2.29104E-001	3.13948E-007	0.00000E+000	2.29250E-001	9.66392E-004	5	..........a	-327.66
	42	8.6	2.59067E-001	3.35569E-007	0.00000E+000	2.59250E-001	9.71392E-004	5	..........a	-327.66
	45	9.2	2.89143E-001	3.54326E-007	0.00000E+000	2.89250E-001	9.54392E-004	5	..........a	-327.66
	48	9.8	3.19077E-001	3.69499E-007	0.00000E+000	3.19250E-001	9.46792E-004	5	..........a	-327.66
	51	10.4	3.49107E-001	3.89545E-007	0.00000E+000	3.49250E-001	9.60292E-004	5	..........a	-327.66
	54	11	3.79050E-001	4.07917E-007	0.00000E+000	3.79250E-001	9.48992E-004	5	..........a	-327.66
	57	11.6	4.09126E-001	4.31561E-007	0.00000E+000	4.09250E-001	9.57492E-004	5	..........a	-327.66
	60	12.2	4.39013E-001	4.42130E-007	0.00000E+000	4.39250E-001	9.48792E-004	5	..........a	-327.66
	63	12.8	4.69003E-001	4.63275E-007	0.00000E+000	4.69250E-001	9.55692E-004	5	..........a	-327.66
	66	13.4	4.98991E-001	4.79821E-007	0.00000E+000	4.99250E-001	9.55492E-004	5	..........a	-327.66
	69	14	5.29102E-001	4.78512E-007	0.00000E+000	5.29250E-001	9.57592E-004	5	..........a	-327.66
	72	14.6	5.58997E-001	4.87310E-007	0.00000E+000	5.59250E-001	9.43192E-004	5	..........a	-327.66
	75	15.2	5.88927E-001	5.00965E-007	0.00000E+000	5.89250E-001	9.60092E-004	5	..........a	-327.66
	78	15.8	6.18919E-001	5.17386E-007	0.00000E+000	6.19250E-001	9.53892E-004	5	..........a	-327.66
	81	16.4	6.48969E-001	5.39242E-007	0.00000E+000	6.49250E-001	9.45492E-004	5	..........a	-327.66
	84	17	6.79186E-001	5.66122E-007	0.00000E+000	6.79250E-001	9.43892E-004	6	..........a	-327.66
	87	17.6	7.09126E-001	5.84937E-007	0.00000E+000	7.09250E-001	9.52892E-004	6	..........a	-327.66
	90	18.2	7.39159E-001	6.10047E-007	0.00000E+000	7.39250E-001	9.58292E-004	6	..........a	-327.66
	93	18.8	7.69178E-001	6.42826E-007	0.00000E+000	7.69250E-001	9.55492E-004	6	..........a	-327.66
	96	19.4	7.99153E-001	6.92354E-007	0.00000E+000	7.99250E-001	9.48292E-004	6	..........a	-327.66
	99	20	7.69235E-001	5.07519E-007	0.00000E+000	7.69250E-001	9.54492E-004	6	..........a	-327.66
	102	20.6	7.38999E-001	4.02242E-007	0.00000E+000	7.39250E-001	9.52492E-004	5	..........a	-327.66
	105	21.2	7.08997E-001	3.34127E-007	0.00000E+000	7.09250E-001	9.54892E-004	5	..........a	-327.66
	108	21.8	6.79034E-001	2.79837E-007	0.00000E+000	6.79250E-001	9.48392E-004	5	..........a	-327.66
	111	22.4	6.49140E-001	2.27627E-007	0.00000E+000	6.49250E-001	9.55692E-004	5	..........a	-327.66
	114	23	6.19089E-001	1.84189E-007	0.00000E+000	6.19250E-001	9.47292E-004	5	..........a	-327.66
	117	23.6	5.89123E-001	1.44995E-007	0.00000E+000	5.89250E-001	9.54892E-004	5	..........a	-327.66
	120	24.2	5.59192E-001	1.12950E-007	0.00000E+000	5.59250E-001	9.46292E-004	5	..........a	-327.66
	123	24.8	5.29201E-001	7.95500E-008	0.00000E+000	5.29250E-001	9.55992E-004	5	..........a	-327.66
	126	25.4	4.99201E-001	5.11546E-008	0.00000E+000	4.99250E-001	9.56492E-004	5	..........a	-327.66
	129	26	4.69223E-001	2.47442E-008	0.00000E+000	4.69250E-001	9.59492E-004	5	..........a	-327.66
	132	26.6	4.39254E-001	6.67241E-010	0.00000E+000	4.39250E-001	9.42692E-004	5	..........a	-327.66
	135	27.2	4.09271E-001	-2.21562E-008	0.00000E+000	4.09250E-001	9.55892E-004	5	..........a	-327.66
	138	27.8	3.79278E-001	-4.26912E-008	0.00000E+000	3.79250E-001	9.51592E-004	5	..........a	-327.66
	141	28.4	3.49326E-001	-6.18911E-008	0.00000E+000	3.49250E-001	9.42592E-004	5	..........a	-327.66
	144	29	3.19349E-001	-8.09007E-008	0.00000E+000	3.19250E-001	9.50592E-004	5	..........a	-327.66
	147	29.6	2.89339E-001	-9.94021E-008	0.00000E+000	2.89250E-001	9.48292E-004	5	..........a	-327.66
	150	30.2	2.59286E-001	-1.17463E-007	0.00000E+000	2.59250E-001	9.49892E-004	5	..........a	-327.66
	153	30.8	2.29325E-001	-1.35664E-007	0.00000E+000	2.29250E-001	9.57792E-004	5	..........a	-327.66
	156	31.4	1.99496E-001	-1.54584E-007	0.00000E+000	1.99250E-001	9.43292E-004	5	..........a	-327.66
	159	32	1.69398E-001	-1.74286E-007	0.00000E+000	1.69250E-001	9.55092E-004	5	..........a	-327.66
	162	32.6	1.39420E-001	-1.92807E-007	0.00000E+000	1.39250E-001	9.44192E-004	5	..........a	-327.66
	165	33.2	1.09414E-001	-2.07852E-007	0.00000E+000	1.09250E-001	9.45592E-004	5	..........a	-327.66
	168	33.8	7.95073E-002	-2.17889E-007	0.00000E+000	7.92500E-002	9.61092E-004	5	..........a	-327.66
	171	34.4	4.94107E-002	-2.25856E-007	0.00000E+000	4.92500E-002	9.51092E-004	5	..........a	-327.66
	174	35	1.93986E-002	-2.33444E-007	0.00000E+000	1.92500E-002	9.52592E-004	5	..........a	-327.66
	177	35.6	-1.06246E-002	-2.40861E-007	0.00000E+000	-1.07500E-002	9.44092E-004	5	..........a	-327.66
	180	36.2	-4.05635E-002	-2.48143E-007	0.00000E+000	-4.07500E-002	9.44792E-004	5	..........a	-327.66
	183	36.8	-7.05793E-002	-2.55122E-007	0.00000E+000	-7.07500E-002	9.43392E-004	5	..........a	-327.66
	186	37.4	-1.00576E-001	-2.61943E-007	0.00000E+000	-1.00750E-001	9.60392E-004	5	..........a	-327.66
	189	38	-1.30576E-001	-2.70183E-007	0.00000E+000	-1.30750E-001	9.51692E-004	5	..........a	-327.66
	192	38.6	-1.60468E-001	-2.78347E-007	0.00000E+000	-1.60750E-001	9.56392E-004	5	..........a	-327.66
	195	39.2	-1.90582E-001	-2.86417E-007	0.00000E+000	-1.90750E-001	9.56092E-004	5	..........a	-327.66
	198	39.8	-2.20511E-001	-2.93937E-007	0.00000E+000	-2.20750E-001	9.51192E-004	5	..........a	-327.66
	201	40.4	-2.50532E-001	-3.00718E-007	0.00000E+000	-2.50750E-001	9.43192E-004	5	..........a	-327.66
	204	41	-2.80444E-001	-3.06329E-007	0.00000E+000	-2.80750E-001	9.54792E-004	5	..........a	-327.66
	207	41.6	-3.10527E-001	-3.11447E-007	0.00000E+000	-3.10750E-001	9.66592E-004	5	..........a	-327.66
	210	42.2	-3.40528E-001	-3.16768E-007	0.00000E+000	-3.40750E-001	9.60292E-004	5	..........a	-327.66
	213	42.8	-3.70499E-001	-3.21633E-007	0.00000E+000	-3.70750E-001	9.46392E-004	5	..........a	-327.66
	216	43.4	-4.00457E-001	-3.25826E-007	0.00000E+000	-4.00750E-001	9.61692E-004	5	..........a	-327.66
	219	44	-4.30486E-001	-3.29271E-007	0.00000E+000	-4.30750E-001	9.59292E-004	5	..........a	-327.66
	222	44.6	-4.60467E-001	-3.32397E-007	0.00000E+000	-4.60750E-001	9.58792E-004	5	..........a	-327.66
	225	45.2	-4.90478E-001	-3.35929E-007	0.00000E+000	-4.90750E-001	9.45092E-004	5	..........a	-327.66
	228	45.8	-5.20405E-001	-3.39832E-007	0.00000E+000	-5.20750E-001	9.63092E-004	5	..........a	-327.66
	231	46.4	-5.50503E-001	-3.44631E-007	0.00000E+000	-5.50750E-001	9.56792E-004	5	..........a	-327.66
	234	47	-5.80454E-001	-3.49328E-007	0.00000E+000	-5.80750E-001	9.58992E-004	5	..........a	-327.66
	236	47.4	-6.00414E-001	-3.53421E-007	0.00000E+000	-6.00750E-001	9.62992E-004	5	..........a	-327.66
CURVE2	TABLE
	Pt	T	Vf	Im	Vu	Sig	Ach	IERange	Over	Temp
	#	s	V vs. Ref.	A	V	V	V	#	bits	deg C
	237	47.6	-5.89767E-001	-2.90549E-007	0.00000E+000	-5.90000E-001	9.53492E-004	5	..........a	-327.66
	240	48.2	-5.59807E-001	-1.99620E-007	0.00000E+000	-5.60000E-001	9.62492E-004	5	..........a	-327.66
	243	48.8	-5.29821E-001	-1.44877E-007	0.00000E+000	-5.30000E-001	9.36792E-004	5	..........a	-327.66
	246	49.4	-4.99816E-001	-1.04016E-007	0.00000E+000	-5.00000E-001	9.43992E-004	5	..........a	-327.66
	249	50	-4.69836E-001	-7.14317E-008	0.00000E+000	-4.70000E-001	9.43492E-004	5	..........a	-327.66
	252	50.6	-4.39859E-001	-4.35185E-008	0.00000E+000	-4.40000E-001	9.43792E-004	5	..........a	-327.66
	255	51.2	-4.09878E-001	-2.07872E-008	0.00000E+000	-4.10000E-001	9.55692E-004	5	..........a	-327.66
	258	51.8	-3.79889E-001	-8.87577E-010	0.00000E+000	-3.80000E-001	9.43092E-004	5	..........a	-327.66
	261	52.4	-3.49916E-001	1.66134E-008	0.00000E+000	-3.50000E-001	9.55692E-004	5	..........a	-327.66
	264	53	-3.19917E-001	3.23601E-008	0.00000E+000	-3.20000E-001	9.49392E-004	5	..........a	-327.66
	267	53.6	-2.89949E-001	4.79195E-008	0.00000E+000	-2.90000E-001	9.58492E-004	5	..........a	-327.66
	270	54.2	-2.59895E-001	6.15861E-008	0.00000E+000	-2.60000E-001	9.40892E-004	5	..........a	-327.66
	273	54.8	-2.29978E-001	7.61967E-008	0.00000E+000	-2.30000E-001	9.54992E-004	5	..........a	-327.66
	276	55.4	-2.00023E-001	9.23152E-008	0.00000E+000	-2.00000E-001	9.63692E-004	5	..........a	-327.66
	279	56	-1.69957E-001	1.07755E-007	0.00000E+000	-1.70000E-001	9.55292E-004	5	..........a	-327.66
	282	56.6	-1.40000E-001	1.23152E-007	0.00000E+000	-1.40000E-001	9.49792E-004	5	..........a	-327.66
	285	57.2	-1.10027E-001	1.38699E-007	0.00000E+000	-1.10000E-001	9.49892E-004	5	..........a	-327.66
	288	57.8	-8.00605E-002	1.53526E-007	0.00000E+000	-8.00000E-002	9.54492E-004	5	..........a	-327.66
	291	58.4	-4.99975E-002	1.68567E-007	0.00000E+000	-5.00000E-002	9.43492E-004	5	..........a	-327.66
	294	59	-2.00619E-002	1.83909E-007	0.00000E+000	-2.00000E-002	9.50392E-004	5	..........a	-327.66
	297	59.6	9.98449E-003	1.99529E-007	0.00000E+000	1.00000E-002	9.60692E-004	5	..........a	-327.66
	300	60.2	3.99505E-002	2.15243E-007	0.00000E+000	4.00000E-002	9.49492E-004	5	..........a	-327.66
	303	60.8	6.99620E-002	2.31703E-007	0.00000E+000	7.00000E-002	9.65992E-004	5	..........a	-327.66
	306	61.4	9.99012E-002	2.49402E-007	0.00000E+000	1.00000E-001	9.48592E-004	5	..........a	-327.66
	309	62	1.29898E-001	2.68593E-007	0.00000E+000	1.30000E-001	9.67592E-004	5	..........a	-327.66
	312	62.6	1.59890E-001	2.88935E-007	0.00000E+000	1.60000E-001	9.62092E-004	5	..........a	-327.66
	315	63.2	1.89945E-001	3.09811E-007	0.00000E+000	1.90000E-001	9.57992E-004	5	..........a	-327.66
	318	63.8	2.19695E-001	3.27793E-007	0.00000E+000	2.20000E-001	9.42692E-004	5	..........a	-327.66
	321	64.4	2.49826E-001	3.50894E-007	0.00000E+000	2.50000E-001	9.68192E-004	5	..........a	-327.66
	324	65	2.79820E-001	3.58692E-007	0.00000E+000	2.80000E-001	9.61292E-004	5	..........a	-327.66
	327	65.6	3.09918E-001	3.72695E-007	0.00000E+000	3.10000E-001	9.55092E-004	5	..........a	-327.66
	330	66.2	3.39839E-001	3.89229E-007	0.00000E+000	3.40000E-001	9.48692E-004	5	..........a	-327.66
	333	66.8	3.69845E-001	4.05543E-007	0.00000E+000	3.70000E-001	9.62192E-004	5	..........a	-327.66
	336	67.4	3.99810E-001	4.24177E-007	0.00000E+000	4.00000E-001	9.60892E-004	5	..........a	-327.66
	339	68	4.29881E-001	4.34653E-007	0.00000E+000	4.30000E-001	9.60192E-004	5	..........a	-327.66
	342	68.6	4.59770E-001	4.42202E-007	0.00000E+000	4.60000E-001	9.62192E-004	5	..........a	-327.66
	345	69.2	4.89739E-001	4.50904E-007	0.00000E+000	4.90000E-001	9.53292E-004	5	..........a	-327.66
	348	69.8	5.19766E-001	4.63516E-007	0.00000E+000	5.20000E-001	9.49492E-004	5	..........a	-327.66
	351	70.4	5.49794E-001	4.67950E-007	0.00000E+000	5.50000E-001	9.43192E-004	5	..........a	-327.66
	354	71	5.79755E-001	4.85447E-007	0.00000E+000	5.80000E-001	9.54292E-004	5	..........a	-327.66
	357	71.6	6.09722E-001	4.98130E-007	0.00000E+000	6.10000E-001	9.61092E-004	5	..........a	-327.66
	360	72.2	6.39640E-001	5.12081E-007	0.00000E+000	6.40000E-001	9.62192E-004	5	..........a	-327.66
[...]
	956	191.4	5.99907E-001	1.29406E-007	0.00000E+000	6.00000E-001	9.50692E-004	5	..........a	-327.66
	959	192	5.69919E-001	9.67374E-008	0.00000E+000	5.70000E-001	9.61092E-004	5	..........a	-327.66
	962	192.6	5.39970E-001	6.72305E-008	0.00000E+000	5.40000E-001	9.35292E-004	5	..........a	-327.66
	965	193.2	5.09991E-001	4.00490E-008	0.00000E+000	5.10000E-001	9.70792E-004	5	..........a	-327.66
	968	193.8	4.79930E-001	1.49974E-008	0.00000E+000	4.80000E-001	9.55292E-004	5	..........a	-327.66
	971	194.4	4.50018E-001	-8.35022E-009	0.00000E+000	4.50000E-001	9.49092E-004	5	..........a	-327.66
	974	195	4.20041E-001	-2.99471E-008	0.00000E+000	4.20000E-001	9.52192E-004	5	..........a	-327.66
	977	195.6	3.90073E-001	-5.03674E-008	0.00000E+000	3.90000E-001	9.52792E-004	5	..........a	-327.66
	980	196.2	3.60053E-001	-6.95322E-008	0.00000E+000	3.60000E-001	9.65792E-004	5	..........a	-327.66
	983	196.8	3.30098E-001	-8.75727E-008	0.00000E+000	3.30000E-001	9.57592E-004	5	..........a	-327.66
	986	197.4	3.00142E-001	-1.04730E-007	0.00000E+000	3.00000E-001	9.42092E-004	5	..........a	-327.66
	989	198	2.70136E-001	-1.21752E-007	0.00000E+000	2.70000E-001	9.51292E-004	5	..........a	-327.66
	992	198.6	2.40099E-001	-1.39062E-007	0.00000E+000	2.40000E-001	9.52092E-004	5	..........a	-327.66
	995	199.2	2.10104E-001	-1.57346E-007	0.00000E+000	2.10000E-001	9.56492E-004	5	..........a	-327.66
	998	199.8	1.80219E-001	-1.76435E-007	0.00000E+000	1.80000E-001	9.46892E-004	5	..........a	-327.66
	1001	200.4	1.50163E-001	-1.94330E-007	0.00000E+000	1.50000E-001	9.50292E-004	5	..........a	-327.66
	1004	201	1.20180E-001	-2.08976E-007	0.00000E+000	1.20000E-001	9.49992E-004	5	..........a	-327.66
	1007	201.6	9.01861E-002	-2.19559E-007	0.00000E+000	9.00000E-002	9.45892E-004	5	..........a	-327.66
	1010	202.2	6.02225E-002	-2.28097E-007	0.00000E+000	6.00000E-002	9.49292E-004	5	..........a	-327.66
	1013	202.8	3.01778E-002	-2.36534E-007	0.00000E+000	3.00000E-002	9.59292E-004	5	..........a	-327.66
	1016	203.4	1.59392E-004	-2.44566E-007	0.00000E+000	7.45058E-009	9.50392E-004	5	..........a	-327.66
	1019	204	-2.98174E-002	-2.52048E-007	0.00000E+000	-3.00000E-002	9.48892E-004	5	..........a	-327.66
	1022	204.6	-5.97237E-002	-2.59118E-007	0.00000E+000	-6.00000E-002	9.43592E-004	5	..........a	-327.66
	1025	205.2	-8.98214E-002	-2.66640E-007	0.00000E+000	-9.00000E-002	9.48892E-004	5	..........a	-327.66
	1028	205.8	-1.19808E-001	-2.73970E-007	0.00000E+000	-1.20000E-001	9.44992E-004	5	..........a	-327.66
	1031	206.4	-1.49819E-001	-2.81393E-007	0.00000E+000	-1.50000E-001	9.55892E-004	5	..........a	-327.66
	1034	207	-1.79729E-001	-2.88935E-007	0.00000E+000	-1.80000E-001	9.45792E-004	5	..........a	-327.66
	1037	207.6	-2.09773E-001	-2.96391E-007	0.00000E+000	-2.10000E-001	9.52292E-004	5	..........a	-327.66
	1040	208.2	-2.39739E-001	-3.02928E-007	0.00000E+000	-2.40000E-001	9.61092E-004	5	..........a	-327.66
	1043	208.8	-2.69775E-001	-3.08482E-007	0.00000E+000	-2.70000E-001	9.49192E-004	5	..........a	-327.66
	1046	209.4	-2.99719E-001	-3.13529E-007	0.00000E+000	-3.00000E-001	9.42392E-004	5	..........a	-327.66
	1049	210	-3.29773E-001	-3.18336E-007	0.00000E+000	-3.30000E-001	9.61792E-004	5	..........a	-327.66
	1052	210.6	-3.59756E-001	-3.22455E-007	0.00000E+000	-3.60000E-001	9.62992E-004	5	..........a	-327.66
	1055	211.2	-3.89753E-001	-3.25840E-007	0.00000E+000	-3.90000E-001	9.47092E-004	5	..........a	-327.66
	1058	211.8	-4.19645E-001	-3.28272E-007	0.00000E+000	-4.20000E-001	9.52192E-004	5	..........a	-327.66
	1061	212.4	-4.49766E-001	-3.30135E-007	0.00000E+000	-4.50000E-001	9.44892E-004	5	..........a	-327.66
	1064	213	-4.79703E-001	-3.31936E-007	0.00000E+000	-4.80000E-001	9.64192E-004	5	..........a	-327.66
	1067	213.6	-5.09727E-001	-3.34105E-007	0.00000E+000	-5.10000E-001	9.58092E-004	5	..........a	-327.66
	1070	214.2	-5.39655E-001	-3.37043E-007	0.00000E+000	-5.40000E-001	9.56392E-004	5	..........a	-327.66
	1073	214.8	-5.69724E-001	-3.41338E-007	0.00000E+000	-5.70000E-001	9.65192E-004	5	..........a	-327.66
	1076	215.4	-5.99677E-001	-3.47093E-007	0.00000E+000	-6.00000E-001	9.61092E-004	5	..........a	-327.66
CURVE5	TABLE
	Pt	T	Vf	Im	Vu	Sig	Ach	IERange	Over	Temp
	#	s	V vs. Ref.	A	V	V	V	#	bits	deg C
	1077	215.6	-5.89750E-001	-2.90820E-007	0.00000E+000	-5.90000E-001	9.53492E-004	5	..........a	-327.66
	1078	215.8	-5.79704E-001	-2.53605E-007	0.00000E+000	-5.80000E-001	9.61692E-004	5	..........a	-327.66
	1079	216	-5.69778E-001	-2.24666E-007	0.00000E+000	-5.70000E-001	9.55892E-004	5	..........a	-327.66
	1080	216.2	-5.59798E-001	-2.00828E-007	0.00000E+000	-5.60000E-001	9.64892E-004	5	..........a	-327.66
	1081	216.4	-5.49810E-001	-1.80235E-007	0.00000E+000	-5.50000E-001	9.37092E-004	5	..........a	-327.66
	1082	216.6	-5.39715E-001	-1.62134E-007	0.00000E+000	-5.40000E-001	9.42592E-004	5	..........a	-327.66
	1083	216.8	-5.29810E-001	-1.45939E-007	0.00000E+000	-5.30000E-001	9.46892E-004	5	..........a	-327.66
	1084	217	-5.19795E-001	-1.32144E-007	0.00000E+000	-5.20000E-001	9.64792E-004	5	..........a	-327.66
	1085	217.2	-5.09822E-001	-1.18606E-007	0.00000E+000	-5.10000E-001	9.57692E-004	5	..........a	-327.66
	1086	217.4	-4.99807E-001	-1.06335E-007	0.00000E+000	-5.00000E-001	9.58192E-004	5	..........a	-327.66
	1087	217.6	-4.89830E-001	-9.44477E-008	0.00000E+000	-4.90000E-001	9.65492E-004	5	..........a	-327.66
	1088	217.8	-4.79834E-001	-8.35281E-008	0.00000E+000	-4.80000E-001	9.46492E-004	5	..........a	-327.66
	1089	218	-4.69834E-001	-7.33671E-008	0.00000E+000	-4.70000E-001	9.46292E-004	5	..........a	-327.66
	1090	218.2	-4.59798E-001	-6.40442E-008	0.00000E+000	-4.60000E-001	9.46292E-004	5	..........a	-327.66
	1091	218.4	-4.49837E-001	-5.47782E-008	0.00000E+000	-4.50000E-001	9.42992E-004	5	..........a	-327.66
	1092	218.6	-4.39828E-001	-4.61666E-008	0.00000E+000	-4.40000E-001	9.60292E-004	5	..........a	-327.66
	1093	218.8	-4.29860E-001	-3.79407E-008	0.00000E+000	-4.30000E-001	9.53792E-004	5	..........a	-327.66
	1094	219	-4.19826E-001	-3.00693E-008	0.00000E+000	-4.20000E-001	9.53092E-004	5	..........a	-327.66
	1095	219.2	-4.09868E-001	-2.23265E-008	0.00000E+000	-4.10000E-001	9.56992E-004	5	..........a	-327.66
	1096	219.4	-3.99852E-001	-1.46678E-008	0.00000E+000	-4.00000E-001	9.52592E-004	5	..........a	-327.66
	1097	219.6	-3.89920E-001	-7.50065E-009	0.00000E+000	-3.90000E-001	9.57192E-004	5	..........a	-327.66
	1098	219.8	-3.79863E-001	-9.18278E-010	0.00000E+000	-3.80000E-001	9.51492E-004	5	..........a	-327.66
	1099	220	-3.69888E-001	5.68306E-009	0.00000E+000	-3.70000E-001	9.61192E-004	5	..........a	-327.66
	1100	220.2	-3.59948E-001	1.25221E-008	0.00000E+000	-3.60000E-001	9.65892E-004	5	..........a	-327.66
	1101	220.4	-3.49911E-001	1.81955E-008	0.00000E+000	-3.50000E-001	9.59192E-004	5	..........a	-327.66
	1102	220.6	-3.39878E-001	2.46318E-008	0.00000E+000	-3.40000E-001	9.46092E-004	5	..........a	-327.66
	1103	220.8	-3.29926E-001	3.04287E-008	0.00000E+000	-3.30000E-001	9.61892E-004	5	..........a	-327.66
	1104	221	-3.19900E-001	3.58685E-008	0.00000E+000	-3.20000E-001	9.62192E-004	5	..........a	-327.66
	1105	221.2	-3.09936E-001	4.15187E-008	0.00000E+000	-3.10000E-001	9.54392E-004	5	..........a	-327.66
	1106	221.4	-2.99890E-001	4.65720E-008	0.00000E+000	-3.00000E-001	9.43192E-004	5	..........a	-327.66
	1107	221.6	-2.89936E-001	5.16196E-008	0.00000E+000	-2.90000E-001	9.54192E-004	5	..........a	-327.66
	1108	221.8	-2.79940E-001	5.63835E-008	0.00000E+000	-2.80000E-001	9.60292E-004	5	..........a	-327.66
	1109	222	-2.69905E-001	6.11849E-008	0.00000E+000	-2.70000E-001	9.53392E-004	5	..........a	-327.66
	1110	222.2	-2.59895E-001	6.57796E-008	0.00000E+000	-2.60000E-001	9.49592E-004	5	..........a	-327.66
	1111	222.4	-2.49913E-001	7.01773E-008	0.00000E+000	-2.50000E-001	9.59992E-004	5	..........a	-327.66
	1112	222.6	-2.39942E-001	7.39615E-008	0.00000E+000	-2.40000E-001	9.55892E-004	5	..........a	-327.66
	1113	222.8	-2.29954E-001	7.83926E-008	0.00000E+000	-2.30000E-001	9.48892E-004	5	..........a	-327.66
	1114	223	-2.19932E-001	8.31028E-008	0.00000E+000	-2.20000E-001	9.46792E-004	5	..........a	-327.66
	1115	223.2	-2.09938E-001	8.78221E-008	0.00000E+000	-2.10000E-001	9.58392E-004	5	..........a	-327.66
	1116	223.4	-2.00008E-001	9.26676E-008	0.00000E+000	-2.00000E-001	9.62992E-004	5	..........a	-327.66
	1117	223.6	-1.90031E-001	9.76593E-008	0.00000E+000	-1.90000E-001	9.57292E-004	5	..........a	-327.66
	1118	223.8	-1.80000E-001	1.02839E-007	0.00000E+000	-1.80000E-001	9.52992E-004	5	..........a	-327.66
	1119	224	-1.69957E-001	1.08115E-007	0.00000E+000	-1.70000E-001	9.49292E-004	5	..........a	-327.66
	1120	224.2	-1.60025E-001	1.13384E-007	0.00000E+000	-1.60000E-001	9.51092E-004	5	..........a	-327.66