File: data/raw/batch_data/20240509_S_GM0016_HL03_E05_CV50.DTA
EXPLAIN
TAG	CV
TITLE	LABEL	Cyclic Voltammetry	Test &Identifier
DATE	LABEL	5/9/2024	Date
TIME	LABEL	13:25:13	Time
NOTES	NOTES	1	&Notes...

PSTAT	PSTAT	REF600P-43058	Potentiostat
VINIT	POTEN	0.00000E+000	T	Initial &E (V)
VLIMIT1	POTEN	8.00000E-001	F	Scan Limit &1 (V)
VLIMIT2	POTEN	-6.00000E-001	F	Scan Limit &2 (V)
VFINAL	POTEN	0.00000E+000	T	Final &E (V)
SCANRATE	QUANT	4.99999E+001	&Scan Rate (mV/s)
STEPSIZE	QUANT	1.00000E+001	St&ep Size (mV)
CYCLES	IQUANT	4	C&ycles (#)
IMODE	SELECTOR	0	I/E Range &Mode
IRANGE	QUANT	1.00000E-005	&Max Current (mA)
AREA	QUANT	1.00000E+000	Electrode &Area (cm^2)
ELECTRODETYPE	SELECTOR	0	Electrode Type
STRIPPING	TOGGLE	F	Used for Stripping
POLARITY	TOGGLE	F	Signal Polarity
CONDIT	TWOPARAM	F	1.50000E+001	0.00000E+000	Conditionin&g	Time(s)	E(V)
DELAY	TWOPARAM	T	1.00000E+001	0.00000E+000	Init. De&lay	Time(s)	Stab.(mV/s)
EQDELAY	QUANT	1.00000E+001	Equil. &Time (s)
IRCOMP	SELECTOR	0	IRCom&p
PFCOR	QUANT	5.00000E+001	PF Corr. (ohm)
SAMPLINGMODE	SELECTOR	1	Sampling &Mode
OCVCURVE	TABLE	39
	Pt	T	Vf	Vm	Ach	Over	Temp
	#	s	V vs. Ref.	V	V	bits	deg C
	0	0.258333	-9.63987E-002	-9.63987E-002	2.51459E-004	..........a	-327.66
	1	0.516667	-9.64029E-002	-9.66170E-002	2.51192E-004	..........a	-327.66
	2	0.775	-9.64286E-002	-9.68300E-002	2.35792E-004	..........a	-327.66
	3	1.03333	-9.65021E-002	-9.70517E-002	2.51726E-004	..........a	-327.66
	4	1.29167	-9.66359E-002	-9.72689E-002	2.36059E-004	..........a	-327.66
	5	1.55	-9.68181E-002	-9.74715E-002	2.48726E-004	..........a	-327.66
	6	1.80833	-9.70260E-002	-9.76828E-002	2.54126E-004	..........a	-327.66
	7	2.06667	-9.72409E-002	-9.78857E-002	2.56126E-004	..........a	-327.66
	8	2.325	-9.74541E-002	-9.80928E-002	2.51326E-004	..........a	-327.66
	9	2.58333	-9.76635E-002	-9.82881E-002	2.42326E-004	..........a	-327.66
	10	2.84167	-9.78699E-002	-9.85053E-002	2.48859E-004	..........a	-327.66
	11	3.1	-9.80745E-002	-9.86962E-002	2.35859E-004	..........a	-327.66
	12	3.35833	-9.82782E-002	-9.88946E-002	2.51059E-004	..........a	-327.66
	13	3.61667	-9.84806E-002	-9.90950E-002	2.44326E-004	..........a	-327.66
	14	3.875	-9.86812E-002	-9.92931E-002	2.66192E-004	..........a	-327.66
	15	4.13333	-9.88805E-002	-9.94942E-002	2.56792E-004	..........a	-327.66
	16	4.39167	-9.90794E-002	-9.96893E-002	2.56926E-004	..........a	-327.66
	17	4.65	-9.92779E-002	-9.98728E-002	2.50126E-004	..........a	-327.66
	18	4.90833	-9.94748E-002	-1.00064E-001	2.47726E-004	..........a	-327.66
	19	5.16667	-9.96687E-002	-1.00254E-001	2.64592E-004	..........a	-327.66
	20	5.425	-9.98598E-002	-1.00435E-001	2.51992E-004	..........a	-327.66
	21	5.68333	-1.00049E-001	-1.00621E-001	2.42992E-004	..........a	-327.66
	22	5.94167	-1.00236E-001	-1.00806E-001	2.47992E-004	..........a	-327.66
	23	6.2	-1.00422E-001	-1.00974E-001	2.62192E-004	..........a	-327.66
	24	6.45833	-1.00605E-001	-1.01157E-001	2.56126E-004	..........a	-327.66
	25	6.71667	-1.00786E-001	-1.01333E-001	2.47992E-004	..........a	-327.66
	26	6.975	-1.00965E-001	-1.01513E-001	2.41792E-004	..........a	-327.66
	27	7.23333	-1.01142E-001	-1.01690E-001	2.53592E-004	..........a	-327.66
	28	7.49167	-1.01320E-001	-1.01860E-001	2.47926E-004	..........a	-327.66
	29	7.75	-1.01497E-001	-1.02007E-001	2.50192E-004	..........a	-327.66
	30	8.00833	-1.01669E-001	-1.02147E-001	2.44259E-004	..........a	-327.66
	31	8.26667	-1.01834E-001	-1.02294E-001	2.35392E-004	..........a	-327.66
	32	8.525	-1.01990E-001	-1.02454E-001	2.39392E-004	..........a	-327.66
	33	8.78333	-1.02140E-001	-1.02603E-001	2.51792E-004	..........a	-327.66
	34	9.04167	-1.02290E-001	-1.02763E-001	2.41459E-004	..........a	-327.66
	35	9.3	-1.02441E-001	-1.02921E-001	2.46526E-004	..........a	-327.66
	36	9.5583	-1.02595E-001	-1.03083E-001	2.48259E-004	..........a	-327.66
	37	9.8167	-1.02752E-001	-1.03247E-001	2.42459E-004	..........a	-327.66
	38	10.075	-1.02910E-001	-1.03403E-001	2.56126E-004	..........a	-327.66
EOC	QUANT	-0.1029105	Open Circuit (V)
PSTATMODEL	IQUANT	7	Pstat Model
PSTATSECTION	LABEL	REF600P-43058	Pstat Section
PSTATSERIALNO	LABEL	43058	Pstat Serial Number
CTRLMODE	IQUANT	1	Control Mode
ELECTROMETER	IQUANT	0	RE=0 or CS=1
IESTAB	IQUANT	2	I/E Stability
CASPEED	IQUANT	4	Control Amp Speed
CONVENTION	IQUANT	1	Current Convention
ICHRANGE	IQUANT	2	Ich Range
ICHRANGEMODE	TOGGLE	F	Ich Auto Range
ICHOFFSETENABLE	TOGGLE	F	Ich Offset Enable
ICHOFFSET	QUANT	0	Ich Offset (V)
ICHFILTER	IQUANT	2	Ich Filter
VCHRANGE	IQUANT	2	Vch Range
VCHRANGEMODE	TOGGLE	F	Vch Auto Range
VCHOFFSETENABLE	TOGGLE	F	Vch Offset Enable
VCHOFFSET	QUANT	0	Vch Offset (V)
VCHFILTER	IQUANT	2	Vch Filter
ACHRANGE	IQUANT	2	Ach Range
ACHOFFSETENABLE	TOGGLE	F	Ach Offset Enable
ACHOFFSET	QUANT	0	Ach Offset (V)
ACHFILTER	IQUANT	1	Ach Filter
IERANGELOWERLIMIT	IQUANT	1	I/E Range Lower Limit
IERANGEMODE	TOGGLE	T	I/E AutoRange
IERANGE	IQUANT	4	I/E Range
POSFEEDENABLE	TOGGLE	F	Positive Feedback IR Comp
POSFEEDRESISTANCE	QUANT	0	Positive Feedback Resistance (ohm)
ACHSELECT	IQUANT	4	Ach Select
SENSECABLEID	IQUANT	7	Sense Cable ID
PWRCABLEID	IQUANT	7	Power Cable ID
DCCALDATE	LABEL	3/22/2024	DC Calibration Date
ACCALDATE	LABEL	3/22/2024	AC Calibration Date
THERMOSELECT	IQUANT	1	Thermo Select
FRAMEWORKVERSION	LABEL	7.8.4	Framework Version
INSTRUMENTVERSION	LABEL	4.42	Instrument Version
CURVE1	TABLE
	Pt	T	Vf	Im	Vu	Sig	Ach	IERange	Over	Temp
	#	s	V vs. Ref.	A	V	V	V	#	bits	deg C
	0	0.2	-1.02838E-001	9.99454E-010	0.00000E+000	-1.02900E-001	1.03949E-003	5	..........a	-327.66
	3	0.8	-7.28297E-002	7.47248E-009	0.00000E+000	-7.29000E-002	1.01869E-003	5	..........a	-327.66
	6	1.4	-4.28145E-002	1.07524E-008	0.00000E+000	-4.29000E-002	1.00989E-003	5	..........a	-327.66
	9	2	-1.28560E-002	1.33783E-008	0.00000E+000	-1.29000E-002	1.02859E-003	5	..........a	-327.66
	12	2.6	1.71568E-002	1.58585E-008	0.00000E+000	1.71000E-002	1.02259E-003	5	..........a	-327.66
	15	3.2	4.71883E-002	1.85178E-008	0.00000E+000	4.71000E-002	1.01719E-003	5	..........a	-327.66
	18	3.8	7.71041E-002	2.15570E-008	0.00000E+000	7.71000E-002	1.01529E-003	5	..........a	-327.66
	21	4.4	1.07137E-001	2.54681E-008	0.00000E+000	1.07100E-001	1.01759E-003	5	..........a	-327.66
	24	5	1.37218E-001	3.06363E-008	0.00000E+000	1.37100E-001	1.01029E-003	5	..........a	-327.66
	27	5.6	1.67208E-001	3.74474E-008	0.00000E+000	1.67100E-001	1.00939E-003	5	..........a	-327.66
	30	6.2	1.97125E-001	4.53812E-008	0.00000E+000	1.97100E-001	1.03679E-003	5	..........a	-327.66
	33	6.8	2.27097E-001	5.30463E-008	0.00000E+000	2.27100E-001	1.01359E-003	5	..........a	-327.66
	36	7.4	2.57169E-001	5.95943E-008	0.00000E+000	2.57100E-001	1.02939E-003	5	..........a	-327.66
	39	8	2.87103E-001	6.61561E-008	0.00000E+000	2.87100E-001	1.02109E-003	5	..........a	-327.66
	42	8.6	3.17111E-001	7.28901E-008	0.00000E+000	3.17100E-001	1.01709E-003	5	..........a	-327.66
	45	9.2	3.47098E-001	7.99187E-008	0.00000E+000	3.47100E-001	1.01539E-003	5	..........a	-327.66
	48	9.8	3.77152E-001	8.73969E-008	0.00000E+000	3.77100E-001	1.00619E-003	5	..........a	-327.66
	51	10.4	4.07096E-001	9.52135E-008	0.00000E+000	4.07100E-001	1.00479E-003	5	..........a	-327.66
	54	11	4.37018E-001	1.03177E-007	0.00000E+000	4.37100E-001	1.01449E-003	5	..........a	-327.66
	57	11.6	4.67035E-001	1.11155E-007	0.00000E+000	4.67100E-001	1.00069E-003	5	..........a	-327.66
	60	12.2	4.97094E-001	1.18079E-007	0.00000E+000	4.97100E-001	1.00209E-003	5	..........a	-327.66
	63	12.8	5.26948E-001	1.25008E-007	0.00000E+000	5.27100E-001	9.92392E-004	5	..........a	-327.66
	66	13.4	5.57031E-001	1.33210E-007	0.00000E+000	5.57100E-001	1.01219E-003	5	..........a	-327.66
	69	14	5.87013E-001	1.42859E-007	0.00000E+000	5.87100E-001	1.00339E-003	5	..........a	-327.66
	72	14.6	6.17083E-001	1.53883E-007	0.00000E+000	6.17100E-001	1.04449E-003	5	..........a	-327.66
	75	15.2	6.46984E-001	1.66252E-007	0.00000E+000	6.47100E-001	9.96392E-004	5	..........a	-327.66
	78	15.8	6.76989E-001	1.80269E-007	0.00000E+000	6.77100E-001	9.94592E-004	5	..........a	-327.66
	81	16.4	7.06971E-001	1.96183E-007	0.00000E+000	7.07100E-001	1.01409E-003	5	..........a	-327.66
	84	17	7.37102E-001	2.14368E-007	0.00000E+000	7.37100E-001	1.01589E-003	5	..........a	-327.66
	87	17.6	7.66962E-001	2.35248E-007	0.00000E+000	7.67100E-001	1.00469E-003	5	..........a	-327.66
	90	18.2	7.96897E-001	2.59263E-007	0.00000E+000	7.97100E-001	1.00089E-003	5	..........a	-327.66
	93	18.8	7.66987E-001	1.73325E-007	0.00000E+000	7.67100E-001	1.01669E-003	5	..........a	-327.66
	96	19.4	7.37126E-001	1.32814E-007	0.00000E+000	7.37100E-001	1.01039E-003	5	..........a	-327.66
	99	20	7.06977E-001	1.05611E-007	0.00000E+000	7.07100E-001	1.01429E-003	5	..........a	-327.66
	102	20.6	6.76991E-001	8.51236E-008	0.00000E+000	6.77100E-001	1.00639E-003	5	..........a	-327.66
	105	21.2	6.47040E-001	6.88444E-008	0.00000E+000	6.47100E-001	1.02209E-003	5	..........a	-327.66
	108	21.8	6.17141E-001	5.55314E-008	0.00000E+000	6.17100E-001	1.03119E-003	5	..........a	-327.66
	111	22.4	5.87045E-001	4.43625E-008	0.00000E+000	5.87100E-001	9.93392E-004	5	..........a	-327.66
	114	23	5.57094E-001	3.47344E-008	0.00000E+000	5.57100E-001	1.00729E-003	5	..........a	-327.66
	117	23.6	5.26993E-001	2.63921E-008	0.00000E+000	5.27100E-001	1.01659E-003	5	..........a	-327.66
	120	24.2	4.97158E-001	1.90216E-008	0.00000E+000	4.97100E-001	1.00579E-003	5	..........a	-327.66
	123	24.8	4.67071E-001	1.24349E-008	0.00000E+000	4.67100E-001	1.02819E-003	5	..........a	-327.66
	126	25.4	4.37071E-001	6.49411E-009	0.00000E+000	4.37100E-001	1.01389E-003	5	..........a	-327.66
	129	26	4.07137E-001	1.10187E-009	0.00000E+000	4.07100E-001	1.01169E-003	5	..........a	-327.66
	132	26.6	3.77209E-001	-3.89407E-009	0.00000E+000	3.77100E-001	1.02199E-003	5	..........a	-327.66
	135	27.2	3.47171E-001	-8.29174E-009	0.00000E+000	3.47100E-001	1.00979E-003	5	..........a	-327.66
	138	27.8	3.17146E-001	-1.21790E-008	0.00000E+000	3.17100E-001	1.02079E-003	5	..........a	-327.66
	141	28.4	2.87144E-001	-1.55076E-008	0.00000E+000	2.87100E-001	1.01869E-003	5	..........a	-327.66
	144	29	2.57187E-001	-1.83841E-008	0.00000E+000	2.57100E-001	1.01379E-003	5	..........a	-327.66
	147	29.6	2.27123E-001	-2.08400E-008	0.00000E+000	2.27100E-001	1.01349E-003	5	..........a	-327.66
	150	30.2	1.97167E-001	-2.30463E-008	0.00000E+000	1.97100E-001	1.03049E-003	5	..........a	-327.66
	153	30.8	1.67258E-001	-2.49604E-008	0.00000E+000	1.67100E-001	1.01129E-003	5	..........a	-327.66
	156	31.4	1.37243E-001	-2.67543E-008	0.00000E+000	1.37100E-001	1.01759E-003	5	..........a	-327.66
	159	32	1.07170E-001	-2.86660E-008	0.00000E+000	1.07100E-001	1.03349E-003	5	..........a	-327.66
	162	32.6	7.71468E-002	-3.02256E-008	0.00000E+000	7.71000E-002	1.01829E-003	5	..........a	-327.66
	165	33.2	4.72111E-002	-3.12018E-008	0.00000E+000	4.71000E-002	1.00769E-003	5	..........a	-327.66
	168	33.8	1.71654E-002	-3.19376E-008	0.00000E+000	1.71000E-002	1.02049E-003	5	..........a	-327.66
	171	34.4	-1.28162E-002	-3.30881E-008	0.00000E+000	-1.29000E-002	1.02379E-003	5	..........a	-327.66
	174	35	-4.28209E-002	-3.37269E-008	0.00000E+000	-4.29000E-002	1.00759E-003	5	..........a	-327.66
	177	35.6	-7.27925E-002	-3.43325E-008	0.00000E+000	-7.29000E-002	1.01729E-003	5	..........a	-327.66
	180	36.2	-1.02784E-001	-3.52913E-008	0.00000E+000	-1.02900E-001	1.03519E-003	5	..........a	-327.66
	183	36.8	-1.32849E-001	-3.65404E-008	0.00000E+000	-1.32900E-001	1.02339E-003	5	..........a	-327.66
	186	37.4	-1.62832E-001	-3.83221E-008	0.00000E+000	-1.62900E-001	1.03169E-003	5	..........a	-327.66
	189	38	-1.92811E-001	-4.02290E-008	0.00000E+000	-1.92900E-001	1.00519E-003	5	..........a	-327.66
	192	38.6	-2.22751E-001	-4.22237E-008	0.00000E+000	-2.22900E-001	1.02479E-003	5	..........a	-327.66
	195	39.2	-2.52780E-001	-4.42524E-008	0.00000E+000	-2.52900E-001	1.00899E-003	5	..........a	-327.66
	198	39.8	-2.82794E-001	-4.66347E-008	0.00000E+000	-2.82900E-001	1.02809E-003	5	..........a	-327.66
	201	40.4	-3.12730E-001	-4.92200E-008	0.00000E+000	-3.12900E-001	1.01299E-003	5	..........a	-327.66
	204	41	-3.42754E-001	-5.19784E-008	0.00000E+000	-3.42900E-001	1.01259E-003	5	..........a	-327.66
	207	41.6	-3.72754E-001	-5.43519E-008	0.00000E+000	-3.72900E-001	1.01229E-003	5	..........a	-327.66
	210	42.2	-4.02749E-001	-5.65042E-008	0.00000E+000	-4.02900E-001	1.01099E-003	5	..........a	-327.66
	213	42.8	-4.32725E-001	-5.88713E-008	0.00000E+000	-4.32900E-001	1.01569E-003	5	..........a	-327.66
	216	43.4	-4.62713E-001	-6.16324E-008	0.00000E+000	-4.62900E-001	1.02279E-003	5	..........a	-327.66
	219	44	-4.92774E-001	-6.46552E-008	0.00000E+000	-4.92900E-001	1.02149E-003	5	..........a	-327.66
	222	44.6	-5.22704E-001	-6.79099E-008	0.00000E+000	-5.22900E-001	1.02439E-003	5	..........a	-327.66
	225	45.2	-5.52710E-001	-7.16555E-008	0.00000E+000	-5.52900E-001	1.02929E-003	5	..........a	-327.66
	228	45.8	-5.82708E-001	-7.61034E-008	0.00000E+000	-5.82900E-001	1.00109E-003	5	..........a	-327.66
	230	46.2	-6.02734E-001	-7.99093E-008	0.00000E+000	-6.02900E-001	1.01209E-003	5	..........a	-327.66
CURVE2	TABLE
	Pt	T	Vf	Im	Vu	Sig	Ach	IERange	Over	Temp
	#	s	V vs. Ref.	A	V	V	V	#	bits	deg C
	231	46.4	-5.89844E-001	-6.51555E-008	0.00000E+000	-5.90000E-001	1.02729E-003	5	..........a	-327.66
	234	47	-5.59854E-001	-4.60412E-008	0.00000E+000	-5.60000E-001	1.01919E-003	5	..........a	-327.66
	237	47.6	-5.29844E-001	-3.48768E-008	0.00000E+000	-5.30000E-001	1.01579E-003	5	..........a	-327.66
	240	48.2	-4.99832E-001	-2.66023E-008	0.00000E+000	-5.00000E-001	1.00699E-003	5	..........a	-327.66
	243	48.8	-4.69857E-001	-1.93494E-008	0.00000E+000	-4.70000E-001	1.00979E-003	5	..........a	-327.66
	246	49.4	-4.39844E-001	-1.34265E-008	0.00000E+000	-4.40000E-001	1.01959E-003	5	..........a	-327.66
	249	50	-4.09861E-001	-8.22311E-009	0.00000E+000	-4.10000E-001	1.02219E-003	5	..........a	-327.66
	252	50.6	-3.79846E-001	-4.07339E-009	0.00000E+000	-3.80000E-001	1.00099E-003	5	..........a	-327.66
	255	51.2	-3.49917E-001	-1.12948E-010	0.00000E+000	-3.50000E-001	1.01419E-003	5	..........a	-327.66
	258	51.8	-3.19884E-001	3.52865E-009	0.00000E+000	-3.20000E-001	1.00349E-003	5	..........a	-327.66
	261	52.4	-2.89928E-001	6.54182E-009	0.00000E+000	-2.90000E-001	1.02539E-003	5	..........a	-327.66
	264	53	-2.59815E-001	9.25924E-009	0.00000E+000	-2.60000E-001	9.92692E-004	5	..........a	-327.66
	267	53.6	-2.29925E-001	1.18750E-008	0.00000E+000	-2.30000E-001	1.03819E-003	5	..........a	-327.66
	270	54.2	-1.99975E-001	1.42865E-008	0.00000E+000	-2.00000E-001	1.01969E-003	5	..........a	-327.66
	273	54.8	-1.69903E-001	1.65829E-008	0.00000E+000	-1.70000E-001	1.00549E-003	5	..........a	-327.66
	276	55.4	-1.39866E-001	1.87806E-008	0.00000E+000	-1.40000E-001	1.00779E-003	5	..........a	-327.66
	279	56	-1.09960E-001	2.09942E-008	0.00000E+000	-1.10000E-001	1.02309E-003	5	..........a	-327.66
	282	56.6	-8.00358E-002	2.32099E-008	0.00000E+000	-8.00000E-002	1.02129E-003	5	..........a	-327.66
	285	57.2	-4.99035E-002	2.54418E-008	0.00000E+000	-5.00000E-002	1.01139E-003	5	..........a	-327.66
	288	57.8	-1.99182E-002	2.77673E-008	0.00000E+000	-2.00000E-002	1.00049E-003	5	..........a	-327.66
	291	58.4	1.00873E-002	3.03474E-008	0.00000E+000	1.00000E-002	1.00319E-003	5	..........a	-327.66
	294	59	3.99969E-002	3.31262E-008	0.00000E+000	4.00000E-002	1.02889E-003	5	..........a	-327.66
	297	59.6	7.00181E-002	3.62542E-008	0.00000E+000	7.00000E-002	1.03679E-003	5	..........a	-327.66
	300	60.2	1.00093E-001	3.99725E-008	0.00000E+000	1.00000E-001	1.02069E-003	5	..........a	-327.66
	303	60.8	1.30021E-001	4.42902E-008	0.00000E+000	1.30000E-001	1.02939E-003	5	..........a	-327.66
	306	61.4	1.60020E-001	4.77803E-008	0.00000E+000	1.60000E-001	1.03829E-003	5	..........a	-327.66
	309	62	1.90089E-001	5.14707E-008	0.00000E+000	1.90000E-001	1.02129E-003	5	..........a	-327.66
	312	62.6	2.20072E-001	5.50890E-008	0.00000E+000	2.20000E-001	1.01569E-003	5	..........a	-327.66
	315	63.2	2.49987E-001	5.81709E-008	0.00000E+000	2.50000E-001	1.02219E-003	5	..........a	-327.66
	318	63.8	2.79955E-001	6.14682E-008	0.00000E+000	2.80000E-001	9.96892E-004	5	..........a	-327.66
	321	64.4	3.10000E-001	6.53511E-008	0.00000E+000	3.10000E-001	1.02839E-003	5	..........a	-327.66
	324	65	3.40029E-001	6.95664E-008	0.00000E+000	3.40000E-001	1.01199E-003	5	..........a	-327.66
	327	65.6	3.70007E-001	7.39351E-008	0.00000E+000	3.70000E-001	1.02099E-003	5	..........a	-327.66
	330	66.2	4.00023E-001	7.81758E-008	0.00000E+000	4.00000E-001	1.01999E-003	5	..........a	-327.66
	333	66.8	4.29976E-001	8.22805E-008	0.00000E+000	4.30000E-001	1.01499E-003	5	..........a	-327.66
	336	67.4	4.59973E-001	8.65049E-008	0.00000E+000	4.60000E-001	1.00359E-003	5	..........a	-327.66
	339	68	4.89919E-001	9.09766E-008	0.00000E+000	4.90000E-001	1.02619E-003	5	..........a	-327.66
	342	68.6	5.19951E-001	9.62417E-008	0.00000E+000	5.20000E-001	9.99292E-004	5	..........a	-327.66
	345	69.2	5.50007E-001	1.02789E-007	0.00000E+000	5.50000E-001	1.01489E-003	5	..........a	-327.66
	348	69.8	5.79980E-001	1.10944E-007	0.00000E+000	5.80000E-001	9.90992E-004	5	..........a	-327.66
	351	70.4	6.09908E-001	1.20609E-007	0.00000E+000	6.10000E-001	1.00349E-003	5	..........a	-327.66
	354	71	6.39871E-001	1.31981E-007	0.00000E+000	6.40000E-001	1.02209E-003	5	..........a	-327.66
	357	71.6	6.69951E-001	1.45297E-007	0.00000E+000	6.70000E-001	1.01709E-003	5	..........a	-327.66
	360	72.2	6.99880E-001	1.60615E-007	0.00000E+000	7.00000E-001	1.00539E-003	5	..........a	-327.66
[...]
	968	193.8	4.20048E-001	-8.57109E-009	0.00000E+000	4.20000E-001	9.86492E-004	5	..........a	-327.66
	971	194.4	3.90064E-001	-1.28377E-008	0.00000E+000	3.90000E-001	1.00549E-003	5	..........a	-327.66
	974	195	3.60001E-001	-1.68142E-008	0.00000E+000	3.60000E-001	9.91192E-004	5	..........a	-327.66
	977	195.6	3.30040E-001	-2.03513E-008	0.00000E+000	3.30000E-001	1.00489E-003	5	..........a	-327.66
	980	196.2	3.00092E-001	-2.36611E-008	0.00000E+000	3.00000E-001	9.89592E-004	5	..........a	-327.66
	983	196.8	2.70104E-001	-2.65549E-008	0.00000E+000	2.70000E-001	1.00099E-003	5	..........a	-327.66
	986	197.4	2.40055E-001	-2.87508E-008	0.00000E+000	2.40000E-001	9.96992E-004	5	..........a	-327.66
	989	198	2.10035E-001	-3.05584E-008	0.00000E+000	2.10000E-001	9.93092E-004	5	..........a	-327.66
	992	198.6	1.80126E-001	-3.19410E-008	0.00000E+000	1.80000E-001	9.90992E-004	5	..........a	-327.66
	995	199.2	1.50067E-001	-3.29809E-008	0.00000E+000	1.50000E-001	1.00919E-003	5	..........a	-327.66
	998	199.8	1.20063E-001	-3.39244E-008	0.00000E+000	1.20000E-001	1.00139E-003	5	..........a	-327.66
	1001	200.4	9.01185E-002	-3.45774E-008	0.00000E+000	9.00000E-002	1.01089E-003	5	..........a	-327.66
	1004	201	6.01424E-002	-3.46460E-008	0.00000E+000	6.00000E-002	9.90792E-004	5	..........a	-327.66
	1007	201.6	3.00866E-002	-3.46337E-008	0.00000E+000	3.00000E-002	1.02059E-003	5	..........a	-327.66
	1010	202.2	6.35917E-005	-3.46433E-008	0.00000E+000	7.45058E-009	1.00879E-003	5	..........a	-327.66
	1013	202.8	-2.99047E-002	-3.48029E-008	0.00000E+000	-3.00000E-002	1.01269E-003	5	..........a	-327.66
	1016	203.4	-5.98683E-002	-3.52479E-008	0.00000E+000	-6.00000E-002	9.84792E-004	5	..........a	-327.66
	1019	204	-8.98836E-002	-3.63405E-008	0.00000E+000	-9.00000E-002	9.85792E-004	5	..........a	-327.66
	1022	204.6	-1.19934E-001	-3.75044E-008	0.00000E+000	-1.20000E-001	1.01449E-003	5	..........a	-327.66
	1025	205.2	-1.49929E-001	-3.92072E-008	0.00000E+000	-1.50000E-001	1.00579E-003	5	..........a	-327.66
	1028	205.8	-1.79879E-001	-4.11878E-008	0.00000E+000	-1.80000E-001	9.93292E-004	5	..........a	-327.66
	1031	206.4	-2.09901E-001	-4.31688E-008	0.00000E+000	-2.10000E-001	1.02839E-003	5	..........a	-327.66
	1034	207	-2.39869E-001	-4.52984E-008	0.00000E+000	-2.40000E-001	1.00449E-003	5	..........a	-327.66
	1037	207.6	-2.69860E-001	-4.75927E-008	0.00000E+000	-2.70000E-001	9.98492E-004	5	..........a	-327.66
	1040	208.2	-2.99829E-001	-5.03167E-008	0.00000E+000	-3.00000E-001	1.00299E-003	5	..........a	-327.66
	1043	208.8	-3.29906E-001	-5.31936E-008	0.00000E+000	-3.30000E-001	1.02019E-003	5	..........a	-327.66
	1046	209.4	-3.59875E-001	-5.54664E-008	0.00000E+000	-3.60000E-001	1.03559E-003	5	..........a	-327.66
	1049	210	-3.89909E-001	-5.74797E-008	0.00000E+000	-3.90000E-001	1.02429E-003	5	..........a	-327.66
	1052	210.6	-4.19793E-001	-5.94974E-008	0.00000E+000	-4.20000E-001	1.00129E-003	5	..........a	-327.66
	1055	211.2	-4.49838E-001	-6.18330E-008	0.00000E+000	-4.50000E-001	1.02089E-003	5	..........a	-327.66
	1058	211.8	-4.79857E-001	-6.45058E-008	0.00000E+000	-4.80000E-001	1.02849E-003	5	..........a	-327.66
	1061	212.4	-5.09844E-001	-6.73260E-008	0.00000E+000	-5.10000E-001	9.94292E-004	5	..........a	-327.66
	1064	213	-5.39766E-001	-7.05444E-008	0.00000E+000	-5.40000E-001	1.00049E-003	5	..........a	-327.66
	1067	213.6	-5.69867E-001	-7.44391E-008	0.00000E+000	-5.70000E-001	1.02319E-003	5	..........a	-327.66
	1070	214.2	-5.99848E-001	-7.91018E-008	0.00000E+000	-6.00000E-001	1.01909E-003	5	..........a	-327.66
CURVE5	TABLE
	Pt	T	Vf	Im	Vu	Sig	Ach	IERange	Over	Temp
	#	s	V vs. Ref.	A	V	V	V	#	bits	deg C
	1071	214.4	-5.89861E-001	-6.64842E-008	0.00000E+000	-5.90000E-001	1.01009E-003	5	..........a	-327.66
	1072	214.6	-5.79809E-001	-5.79922E-008	0.00000E+000	-5.80000E-001	1.01319E-003	5	..........a	-327.66
	1073	214.8	-5.69865E-001	-5.14608E-008	0.00000E+000	-5.70000E-001	1.03019E-003	5	..........a	-327.66
	1074	215	-5.59844E-001	-4.60606E-008	0.00000E+000	-5.60000E-001	9.96792E-004	5	..........a	-327.66
	1075	215.2	-5.49870E-001	-4.15181E-008	0.00000E+000	-5.50000E-001	1.01579E-003	5	..........a	-327.66
	1076	215.4	-5.39797E-001	-3.74465E-008	0.00000E+000	-5.40000E-001	1.00729E-003	5	..........a	-327.66
	1077	215.6	-5.29839E-001	-3.38700E-008	0.00000E+000	-5.30000E-001	1.01809E-003	5	..........a	-327.66
	1078	215.8	-5.19873E-001	-3.07008E-008	0.00000E+000	-5.20000E-001	1.01499E-003	5	..........a	-327.66
	1079	216	-5.09883E-001	-2.77603E-008	0.00000E+000	-5.10000E-001	1.01919E-003	5	..........a	-327.66
	1080	216.2	-4.99825E-001	-2.51378E-008	0.00000E+000	-5.00000E-001	1.01009E-003	5	..........a	-327.66
	1081	216.4	-4.89877E-001	-2.26648E-008	0.00000E+000	-4.90000E-001	9.91392E-004	5	..........a	-327.66
	1082	216.6	-4.79851E-001	-2.04431E-008	0.00000E+000	-4.80000E-001	1.01239E-003	5	..........a	-327.66
	1083	216.8	-4.69840E-001	-1.83175E-008	0.00000E+000	-4.70000E-001	9.97292E-004	5	..........a	-327.66
	1084	217	-4.59815E-001	-1.62989E-008	0.00000E+000	-4.60000E-001	9.93092E-004	5	..........a	-327.66
	1085	217.2	-4.49842E-001	-1.44490E-008	0.00000E+000	-4.50000E-001	9.99592E-004	5	..........a	-327.66
	1086	217.4	-4.39940E-001	-1.26772E-008	0.00000E+000	-4.40000E-001	1.00809E-003	5	..........a	-327.66
	1087	217.6	-4.29853E-001	-1.09770E-008	0.00000E+000	-4.30000E-001	1.02069E-003	5	..........a	-327.66
	1088	217.8	-4.19809E-001	-9.38982E-009	0.00000E+000	-4.20000E-001	9.87992E-004	5	..........a	-327.66
	1089	218	-4.09885E-001	-7.92640E-009	0.00000E+000	-4.10000E-001	1.01769E-003	5	..........a	-327.66
	1090	218.2	-3.99875E-001	-6.45873E-009	0.00000E+000	-4.00000E-001	9.99492E-004	5	..........a	-327.66
	1091	218.4	-3.89897E-001	-5.06026E-009	0.00000E+000	-3.90000E-001	1.01379E-003	5	..........a	-327.66
	1092	218.6	-3.79843E-001	-3.68872E-009	0.00000E+000	-3.80000E-001	9.99192E-004	5	..........a	-327.66
	1093	218.8	-3.69862E-001	-2.42598E-009	0.00000E+000	-3.70000E-001	9.90792E-004	5	..........a	-327.66
	1094	219	-3.59960E-001	-1.17827E-009	0.00000E+000	-3.60000E-001	1.02589E-003	5	..........a	-327.66
	1095	219.2	-3.49908E-001	-1.72842E-011	0.00000E+000	-3.50000E-001	9.90592E-004	5	..........a	-327.66
	1096	219.4	-3.39816E-001	1.21626E-009	0.00000E+000	-3.40000E-001	9.95292E-004	5	..........a	-327.66
	1097	219.6	-3.29955E-001	2.32423E-009	0.00000E+000	-3.30000E-001	1.02689E-003	5	..........a	-327.66
	1098	219.8	-3.19892E-001	3.43312E-009	0.00000E+000	-3.20000E-001	9.89192E-004	5	..........a	-327.66
	1099	220	-3.09919E-001	4.51046E-009	0.00000E+000	-3.10000E-001	1.00229E-003	5	..........a	-327.66
	1100	220.2	-2.99847E-001	5.52479E-009	0.00000E+000	-3.00000E-001	1.00009E-003	5	..........a	-327.66
	1101	220.4	-2.89921E-001	6.54779E-009	0.00000E+000	-2.90000E-001	1.03939E-003	5	..........a	-327.66
	1102	220.6	-2.79972E-001	7.55267E-009	0.00000E+000	-2.80000E-001	1.02289E-003	5	..........a	-327.66
	1103	220.8	-2.69888E-001	8.47990E-009	0.00000E+000	-2.70000E-001	9.95092E-004	5	..........a	-327.66
	1104	221	-2.59831E-001	9.41026E-009	0.00000E+000	-2.60000E-001	9.92792E-004	5	..........a	-327.66
	1105	221.2	-2.49890E-001	1.02754E-008	0.00000E+000	-2.50000E-001	9.95492E-004	5	..........a	-327.66
	1106	221.4	-2.39926E-001	1.11675E-008	0.00000E+000	-2.40000E-001	1.02119E-003	5	..........a	-327.66
	1107	221.6	-2.29924E-001	1.20115E-008	0.00000E+000	-2.30000E-001	1.00969E-003	5	..........a	-327.66
	1108	221.8	-2.19906E-001	1.28631E-008	0.00000E+000	-2.20000E-001	9.96392E-004	5	..........a	-327.66
	1109	222	-2.09939E-001	1.36665E-008	0.00000E+000	-2.10000E-001	1.02799E-003	5	..........a	-327.66
	1110	222.2	-1.99963E-001	1.45016E-008	0.00000E+000	-2.00000E-001	1.03149E-003	5	..........a	-327.66
	1111	222.4	-1.90112E-001	1.52785E-008	0.00000E+000	-1.90000E-001	9.85592E-004	5	..........a	-327.66
	1112	222.6	-1.79912E-001	1.60684E-008	0.00000E+000	-1.80000E-001	1.00679E-003	5	..........a	-327.66
	1113	222.8	-1.69889E-001	1.68595E-008	0.00000E+000	-1.70000E-001	1.02019E-003	5	..........a	-327.66
	1114	223	-1.60027E-001	1.76092E-008	0.00000E+000	-1.60000E-001	1.03709E-003	5	..........a	-327.66
	1115	223.2	-1.49973E-001	1.83649E-008	0.00000E+000	-1.50000E-001	1.02689E-003	5	..........a	-327.66
	1116	223.4	-1.39901E-001	1.90994E-008	0.00000E+000	-1.40000E-001	1.00449E-003	5	..........a	-327.66
	1117	223.6	-1.29934E-001	1.98424E-008	0.00000E+000	-1.30000E-001	1.02869E-003	5	..........a	-327.66
	1118	223.8	-1.19952E-001	2.05731E-008	0.00000E+000	-1.20000E-001	1.01569E-003	5	..........a	-327.66
	1119	224	-1.09957E-001	2.13001E-008	0.00000E+000	-1.10000E-001	1.00749E-003	5	..........a	-327.66
	1120	224.2	-9.98883E-002	2.20499E-008	0.00000E+000	-1.00000E-001	9.93292E-004	5	..........a	-327.66