File: data/raw/batch_data/20240509_ZZY_GM0016_HL03_E13_CV50.DTA
EXPLAIN
TAG	CV
TITLE	LABEL	Cyclic Voltammetry	Test &Identifier
DATE	LABEL	5/9/2024	Date
TIME	LABEL	15:09:27	Time
NOTES	NOTES	1	&Notes...

PSTAT	PSTAT	REF600P-43058	Potentiostat
VINIT	POTEN	0.00000E+000	T	Initial &E (V)
VLIMIT1	POTEN	8.00000E-001	F	Scan Limit &1 (V)
VLIMIT2	POTEN	-6.00000E-001	F	Scan Limit &2 (V)
VFINAL	POTEN	0.00000E+000	T	Final &E (V)
SCANRATE	QUANT	4.99999E+001	&Scan Rate (mV/s)
STEPSIZE	QUANT	1.00000E+001	St&ep Size (mV)
CYCLES	IQUANT	4	C&ycles (#)
IMODE	SELECTOR	0	I/E Range &Mode
IRANGE	QUANT	1.00000E-005	&Max Current (mA)
AREA	QUANT	1.00000E+000	Electrode &Area (cm^2)
ELECTRODETYPE	SELECTOR	0	Electrode Type
STRIPPING	TOGGLE	F	Used for Stripping
POLARITY	TOGGLE	F	Signal Polarity
CONDIT	TWOPARAM	F	1.50000E+001	0.00000E+000	Conditionin&g	Time(s)	E(V)
DELAY	TWOPARAM	T	1.00000E+001	0.00000E+000	Init. De&lay	Time(s)	Stab.(mV/s)
EQDELAY	QUANT	1.00000E+001	Equil. &Time (s)
IRCOMP	SELECTOR	0	IRCom&p
PFCOR	QUANT	5.00000E+001	PF Corr. (ohm)
SAMPLINGMODE	SELECTOR	1	Sampling &Mode
OCVCURVE	TABLE	39
	Pt	T	Vf	Vm	Ach	Over	Temp
	#	s	V vs. Ref.	V	V	bits	deg C
	0	0.258333	-9.48231E-002	-9.48231E-002	2.40659E-004	..........a	-327.66
	1	0.516667	-9.48283E-002	-9.50949E-002	2.30126E-004	..........a	-327.66
	2	0.775	-9.48604E-002	-9.53619E-002	2.33192E-004	..........a	-327.66
	3	1.03333	-9.49512E-002	-9.55946E-002	2.27326E-004	..........a	-327.66
	4	1.29167	-9.51135E-002	-9.58448E-002	2.31526E-004	..........a	-327.66
	5	1.55	-9.53296E-002	-9.61074E-002	2.35126E-004	..........a	-327.66
	6	1.80833	-9.55733E-002	-9.63695E-002	2.34326E-004	..........a	-327.66
	7	2.06667	-9.58283E-002	-9.66399E-002	2.34392E-004	..........a	-327.66
	8	2.325	-9.60884E-002	-9.68981E-002	2.33192E-004	..........a	-327.66
	9	2.58333	-9.63507E-002	-9.71337E-002	2.44059E-004	..........a	-327.66
	10	2.84167	-9.66115E-002	-9.73898E-002	2.33326E-004	..........a	-327.66
	11	3.1	-9.68674E-002	-9.76169E-002	2.49592E-004	..........a	-327.66
	12	3.35833	-9.71171E-002	-9.78558E-002	2.46192E-004	..........a	-327.66
	13	3.61667	-9.73612E-002	-9.80966E-002	2.33192E-004	..........a	-327.66
	14	3.875	-9.76013E-002	-9.83410E-002	2.43526E-004	..........a	-327.66
	15	4.13333	-9.78406E-002	-9.85959E-002	2.45059E-004	..........a	-327.66
	16	4.39167	-9.80821E-002	-9.88487E-002	2.24726E-004	..........a	-327.66
	17	4.65	-9.83265E-002	-9.90488E-002	2.41392E-004	..........a	-327.66
	18	4.90833	-9.85700E-002	-9.92681E-002	2.27526E-004	..........a	-327.66
	19	5.16667	-9.88065E-002	-9.95045E-002	2.23526E-004	..........a	-327.66
	20	5.425	-9.90354E-002	-9.97469E-002	2.34659E-004	..........a	-327.66
	21	5.68333	-9.92455E-002	-9.90985E-002	2.30392E-004	..........a	-327.66
	22	5.94167	-9.93853E-002	-9.91962E-002	2.31659E-004	..........a	-327.66
	23	6.2	-9.94097E-002	-9.93708E-002	2.43326E-004	..........a	-327.66
	24	6.45833	-9.93625E-002	-9.95406E-002	2.39526E-004	..........a	-327.66
	25	6.71667	-9.93418E-002	-9.97119E-002	2.28059E-004	..........a	-327.66
	26	6.975	-9.94003E-002	-9.98891E-002	2.34992E-004	..........a	-327.66
	27	7.23333	-9.95272E-002	-1.00044E-001	2.27792E-004	..........a	-327.66
	28	7.49167	-9.96891E-002	-1.00207E-001	2.34992E-004	..........a	-327.66
	29	7.75	-9.98604E-002	-1.00369E-001	2.38059E-004	..........a	-327.66
	30	8.00833	-1.00030E-001	-1.00573E-001	2.34659E-004	..........a	-327.66
	31	8.26667	-1.00200E-001	-1.00792E-001	2.38992E-004	..........a	-327.66
	32	8.525	-1.00378E-001	-1.00966E-001	2.22726E-004	..........a	-327.66
	33	8.78333	-1.00566E-001	-1.01133E-001	2.36792E-004	..........a	-327.66
	34	9.04167	-1.00755E-001	-1.01286E-001	2.41192E-004	..........a	-327.66
	35	9.3	-1.00939E-001	-1.01446E-001	2.30992E-004	..........a	-327.66
	36	9.5583	-1.01111E-001	-1.01598E-001	2.24726E-004	..........a	-327.66
	37	9.8167	-1.01274E-001	-1.01766E-001	2.40726E-004	..........a	-327.66
	38	10.075	-1.01434E-001	-1.01937E-001	2.38259E-004	..........a	-327.66
EOC	QUANT	-0.1014337	Open Circuit (V)
PSTATMODEL	IQUANT	7	Pstat Model
PSTATSECTION	LABEL	REF600P-43058	Pstat Section
PSTATSERIALNO	LABEL	43058	Pstat Serial Number
CTRLMODE	IQUANT	1	Control Mode
ELECTROMETER	IQUANT	0	RE=0 or CS=1
IESTAB	IQUANT	2	I/E Stability
CASPEED	IQUANT	4	Control Amp Speed
CONVENTION	IQUANT	1	Current Convention
ICHRANGE	IQUANT	2	Ich Range
ICHRANGEMODE	TOGGLE	F	Ich Auto Range
ICHOFFSETENABLE	TOGGLE	F	Ich Offset Enable
ICHOFFSET	QUANT	0	Ich Offset (V)
ICHFILTER	IQUANT	2	Ich Filter
VCHRANGE	IQUANT	2	Vch Range
VCHRANGEMODE	TOGGLE	F	Vch Auto Range
VCHOFFSETENABLE	TOGGLE	F	Vch Offset Enable
VCHOFFSET	QUANT	0	Vch Offset (V)
VCHFILTER	IQUANT	2	Vch Filter
ACHRANGE	IQUANT	2	Ach Range
ACHOFFSETENABLE	TOGGLE	F	Ach Offset Enable
ACHOFFSET	QUANT	0	Ach Offset (V)
ACHFILTER	IQUANT	1	Ach Filter
IERANGELOWERLIMIT	IQUANT	1	I/E Range Lower Limit
IERANGEMODE	TOGGLE	T	I/E AutoRange
IERANGE	IQUANT	4	I/E Range
POSFEEDENABLE	TOGGLE	F	Positive Feedback IR Comp
POSFEEDRESISTANCE	QUANT	0	Positive Feedback Resistance (ohm)
ACHSELECT	IQUANT	4	Ach Select
SENSECABLEID	IQUANT	7	Sense Cable ID
PWRCABLEID	IQUANT	7	Power Cable ID
DCCALDATE	LABEL	3/22/2024	DC Calibration Date
ACCALDATE	LABEL	3/22/2024	AC Calibration Date
THERMOSELECT	IQUANT	1	Thermo Select
FRAMEWORKVERSION	LABEL	7.8.4	Framework Version
INSTRUMENTVERSION	LABEL	4.42	Instrument Version
CURVE1	TABLE
	Pt	T	Vf	Im	Vu	Sig	Ach	IERange	Over	Temp
	#	s	V vs. Ref.	A	V	V	V	#	bits	deg C
	0	0.2	-1.01304E-001	3.30504E-009	0.00000E+000	-1.01450E-001	9.95292E-004	5	..........a	-327.66
	3	0.8	-7.14090E-002	3.35218E-008	0.00000E+000	-7.14500E-002	9.75392E-004	5	..........a	-327.66
	6	1.4	-4.14197E-002	5.35178E-008	0.00000E+000	-4.14500E-002	9.71192E-004	5	..........a	-327.66
	9	2	-1.13865E-002	7.11522E-008	0.00000E+000	-1.14500E-002	9.78992E-004	5	..........a	-327.66
	12	2.6	1.86673E-002	8.49948E-008	0.00000E+000	1.85500E-002	9.93892E-004	5	..........a	-327.66
	15	3.2	4.86017E-002	9.88040E-008	0.00000E+000	4.85500E-002	9.87792E-004	5	..........a	-327.66
	18	3.8	7.85534E-002	1.13644E-007	0.00000E+000	7.85500E-002	9.86392E-004	5	..........a	-327.66
	21	4.4	1.08567E-001	1.29753E-007	0.00000E+000	1.08550E-001	9.77292E-004	5	..........a	-327.66
	24	5	1.38607E-001	1.48805E-007	0.00000E+000	1.38550E-001	9.84192E-004	5	..........a	-327.66
	27	5.6	1.68473E-001	1.63455E-007	0.00000E+000	1.68550E-001	9.80692E-004	5	..........a	-327.66
	30	6.2	1.98481E-001	1.82031E-007	0.00000E+000	1.98550E-001	9.89692E-004	5	..........a	-327.66
	33	6.8	2.28454E-001	1.98782E-007	0.00000E+000	2.28550E-001	1.00749E-003	5	..........a	-327.66
	36	7.4	2.58541E-001	2.10425E-007	0.00000E+000	2.58550E-001	9.87092E-004	5	..........a	-327.66
	39	8	2.88481E-001	2.21633E-007	0.00000E+000	2.88550E-001	9.85892E-004	5	..........a	-327.66
	42	8.6	3.18480E-001	2.61864E-007	0.00000E+000	3.18550E-001	9.94692E-004	5	..........a	-327.66
	45	9.2	3.48488E-001	2.80200E-007	0.00000E+000	3.48550E-001	9.91092E-004	5	..........a	-327.66
	48	9.8	3.78511E-001	2.92050E-007	0.00000E+000	3.78550E-001	9.82492E-004	5	..........a	-327.66
	51	10.4	4.08381E-001	3.26851E-007	0.00000E+000	4.08550E-001	9.81092E-004	5	..........a	-327.66
	54	11	4.38328E-001	3.46846E-007	0.00000E+000	4.38550E-001	1.00029E-003	5	..........a	-327.66
	57	11.6	4.68403E-001	3.69004E-007	0.00000E+000	4.68550E-001	9.78092E-004	5	..........a	-327.66
	60	12.2	4.98369E-001	3.86023E-007	0.00000E+000	4.98550E-001	9.79692E-004	5	..........a	-327.66
	63	12.8	5.28372E-001	4.00592E-007	0.00000E+000	5.28550E-001	9.83192E-004	5	..........a	-327.66
	66	13.4	5.58326E-001	4.19677E-007	0.00000E+000	5.58550E-001	9.91392E-004	5	..........a	-327.66
	69	14	5.88370E-001	4.43052E-007	0.00000E+000	5.88550E-001	9.83992E-004	5	..........a	-327.66
	72	14.6	6.18279E-001	4.60403E-007	0.00000E+000	6.18550E-001	9.75992E-004	5	..........a	-327.66
	75	15.2	6.48272E-001	4.75745E-007	0.00000E+000	6.48550E-001	9.83892E-004	5	..........a	-327.66
	78	15.8	6.78237E-001	4.89667E-007	0.00000E+000	6.78550E-001	9.82092E-004	5	..........a	-327.66
	81	16.4	7.08341E-001	5.11274E-007	0.00000E+000	7.08550E-001	9.79892E-004	5	..........a	-327.66
	84	17	7.38251E-001	5.39497E-007	0.00000E+000	7.38550E-001	9.89992E-004	5	..........a	-327.66
	87	17.6	7.68496E-001	5.53988E-007	0.00000E+000	7.68550E-001	9.88092E-004	6	..........a	-327.66
	90	18.2	7.98472E-001	5.76320E-007	0.00000E+000	7.98550E-001	9.83592E-004	6	..........a	-327.66
	93	18.8	7.68243E-001	4.11771E-007	0.00000E+000	7.68550E-001	9.87592E-004	5	..........a	-327.66
	96	19.4	7.38371E-001	3.27415E-007	0.00000E+000	7.38550E-001	9.86192E-004	5	..........a	-327.66
	99	20	7.08406E-001	2.67422E-007	0.00000E+000	7.08550E-001	1.00459E-003	5	..........a	-327.66
	102	20.6	6.78390E-001	2.22858E-007	0.00000E+000	6.78550E-001	9.87092E-004	5	..........a	-327.66
	105	21.2	6.48404E-001	1.86983E-007	0.00000E+000	6.48550E-001	9.94092E-004	5	..........a	-327.66
	108	21.8	6.18475E-001	1.59108E-007	0.00000E+000	6.18550E-001	9.67092E-004	5	..........a	-327.66
	111	22.4	5.88454E-001	1.34660E-007	0.00000E+000	5.88550E-001	9.80092E-004	5	..........a	-327.66
	114	23	5.58478E-001	1.08893E-007	0.00000E+000	5.58550E-001	9.91592E-004	5	..........a	-327.66
	117	23.6	5.28516E-001	8.64243E-008	0.00000E+000	5.28550E-001	9.72292E-004	5	..........a	-327.66
	120	24.2	4.98558E-001	6.53572E-008	0.00000E+000	4.98550E-001	9.86692E-004	5	..........a	-327.66
	123	24.8	4.68541E-001	4.56020E-008	0.00000E+000	4.68550E-001	9.85792E-004	5	..........a	-327.66
	126	25.4	4.38505E-001	2.53951E-008	0.00000E+000	4.38550E-001	9.88792E-004	5	..........a	-327.66
	129	26	4.08577E-001	6.95539E-009	0.00000E+000	4.08550E-001	9.80492E-004	5	..........a	-327.66
	132	26.6	3.78704E-001	-1.06711E-008	0.00000E+000	3.78550E-001	9.94692E-004	5	..........a	-327.66
	135	27.2	3.48612E-001	-2.77135E-008	0.00000E+000	3.48550E-001	9.90992E-004	5	..........a	-327.66
	138	27.8	3.18619E-001	-4.42138E-008	0.00000E+000	3.18550E-001	9.87892E-004	5	..........a	-327.66
	141	28.4	2.88614E-001	-6.05371E-008	0.00000E+000	2.88550E-001	9.68892E-004	5	..........a	-327.66
	144	29	2.58709E-001	-7.67469E-008	0.00000E+000	2.58550E-001	9.86392E-004	5	..........a	-327.66
	147	29.6	2.28614E-001	-9.27394E-008	0.00000E+000	2.28550E-001	9.81792E-004	5	..........a	-327.66
	150	30.2	1.98665E-001	-1.08729E-007	0.00000E+000	1.98550E-001	9.71692E-004	5	..........a	-327.66
	153	30.8	1.68609E-001	-1.24308E-007	0.00000E+000	1.68550E-001	9.71792E-004	5	..........a	-327.66
	156	31.4	1.38757E-001	-1.38311E-007	0.00000E+000	1.38550E-001	9.78092E-004	5	..........a	-327.66
	159	32	1.08687E-001	-1.50137E-007	0.00000E+000	1.08550E-001	9.81792E-004	5	..........a	-327.66
	162	32.6	7.86690E-002	-1.59961E-007	0.00000E+000	7.85500E-002	9.80292E-004	5	..........a	-327.66
	165	33.2	4.87096E-002	-1.68693E-007	0.00000E+000	4.85500E-002	9.69292E-004	5	..........a	-327.66
	168	33.8	1.87538E-002	-1.76654E-007	0.00000E+000	1.85500E-002	9.96992E-004	5	..........a	-327.66
	171	34.4	-1.12352E-002	-1.84015E-007	0.00000E+000	-1.14500E-002	9.85592E-004	5	..........a	-327.66
	174	35	-4.12849E-002	-1.91062E-007	0.00000E+000	-4.14500E-002	9.75192E-004	5	..........a	-327.66
	177	35.6	-7.12960E-002	-1.97950E-007	0.00000E+000	-7.14500E-002	9.65692E-004	5	..........a	-327.66
	180	36.2	-1.01228E-001	-2.05537E-007	0.00000E+000	-1.01450E-001	9.85392E-004	5	..........a	-327.66
	183	36.8	-1.31305E-001	-2.13836E-007	0.00000E+000	-1.31450E-001	9.92792E-004	5	..........a	-327.66
	186	37.4	-1.61303E-001	-2.23064E-007	0.00000E+000	-1.61450E-001	9.98292E-004	5	..........a	-327.66
	189	38	-1.91256E-001	-2.33148E-007	0.00000E+000	-1.91450E-001	9.86792E-004	5	..........a	-327.66
	192	38.6	-2.21192E-001	-2.43737E-007	0.00000E+000	-2.21450E-001	9.97092E-004	5	..........a	-327.66
	195	39.2	-2.51244E-001	-2.53701E-007	0.00000E+000	-2.51450E-001	9.74192E-004	5	..........a	-327.66
	198	39.8	-2.81245E-001	-2.62421E-007	0.00000E+000	-2.81450E-001	9.79092E-004	5	..........a	-327.66
	201	40.4	-3.11221E-001	-2.69886E-007	0.00000E+000	-3.11450E-001	9.69792E-004	5	..........a	-327.66
	204	41	-3.41198E-001	-2.76285E-007	0.00000E+000	-3.41450E-001	1.00629E-003	5	..........a	-327.66
	207	41.6	-3.71199E-001	-2.81583E-007	0.00000E+000	-3.71450E-001	9.84992E-004	5	..........a	-327.66
	210	42.2	-4.01203E-001	-2.85931E-007	0.00000E+000	-4.01450E-001	9.90392E-004	5	..........a	-327.66
	213	42.8	-4.31152E-001	-2.89694E-007	0.00000E+000	-4.31450E-001	9.70592E-004	5	..........a	-327.66
	216	43.4	-4.61147E-001	-2.93553E-007	0.00000E+000	-4.61450E-001	9.93892E-004	5	..........a	-327.66
	219	44	-4.91189E-001	-2.97714E-007	0.00000E+000	-4.91450E-001	9.87592E-004	5	..........a	-327.66
	222	44.6	-5.21191E-001	-3.02686E-007	0.00000E+000	-5.21450E-001	9.81192E-004	5	..........a	-327.66
	225	45.2	-5.51163E-001	-3.08392E-007	0.00000E+000	-5.51450E-001	9.54692E-004	5	..........a	-327.66
	228	45.8	-5.81135E-001	-3.14727E-007	0.00000E+000	-5.81450E-001	9.90992E-004	5	..........a	-327.66
	230	46.2	-6.01172E-001	-3.19319E-007	0.00000E+000	-6.01450E-001	9.83192E-004	5	..........a	-327.66
CURVE2	TABLE
	Pt	T	Vf	Im	Vu	Sig	Ach	IERange	Over	Temp
	#	s	V vs. Ref.	A	V	V	V	#	bits	deg C
	231	46.4	-5.89754E-001	-2.76379E-007	0.00000E+000	-5.90000E-001	9.84492E-004	5	..........a	-327.66
	234	47	-5.59810E-001	-2.06591E-007	0.00000E+000	-5.60000E-001	9.75692E-004	5	..........a	-327.66
	237	47.6	-5.29808E-001	-1.59788E-007	0.00000E+000	-5.30000E-001	9.87792E-004	5	..........a	-327.66
	240	48.2	-4.99798E-001	-1.23789E-007	0.00000E+000	-5.00000E-001	9.75092E-004	5	..........a	-327.66
	243	48.8	-4.69830E-001	-9.41473E-008	0.00000E+000	-4.70000E-001	9.71992E-004	5	..........a	-327.66
	246	49.4	-4.39857E-001	-6.88475E-008	0.00000E+000	-4.40000E-001	9.87692E-004	5	..........a	-327.66
	249	50	-4.09854E-001	-4.67952E-008	0.00000E+000	-4.10000E-001	9.80392E-004	5	..........a	-327.66
	252	50.6	-3.79841E-001	-2.72337E-008	0.00000E+000	-3.80000E-001	9.68792E-004	5	..........a	-327.66
	255	51.2	-3.49875E-001	-9.59839E-009	0.00000E+000	-3.50000E-001	9.75892E-004	5	..........a	-327.66
	258	51.8	-3.19887E-001	6.52841E-009	0.00000E+000	-3.20000E-001	9.64292E-004	5	..........a	-327.66
	261	52.4	-2.89925E-001	2.13197E-008	0.00000E+000	-2.90000E-001	9.78292E-004	5	..........a	-327.66
	264	53	-2.59850E-001	3.51688E-008	0.00000E+000	-2.60000E-001	9.69992E-004	5	..........a	-327.66
	267	53.6	-2.29982E-001	4.81658E-008	0.00000E+000	-2.30000E-001	9.88092E-004	5	..........a	-327.66
	270	54.2	-1.99995E-001	6.04814E-008	0.00000E+000	-2.00000E-001	9.81292E-004	5	..........a	-327.66
	273	54.8	-1.69932E-001	7.28070E-008	0.00000E+000	-1.70000E-001	9.80092E-004	5	..........a	-327.66
	276	55.4	-1.39944E-001	8.39674E-008	0.00000E+000	-1.40000E-001	9.63892E-004	5	..........a	-327.66
	279	56	-1.10040E-001	9.51779E-008	0.00000E+000	-1.10000E-001	9.78192E-004	5	..........a	-327.66
	282	56.6	-8.00347E-002	1.06312E-007	0.00000E+000	-8.00000E-002	9.88592E-004	5	..........a	-327.66
	285	57.2	-4.99577E-002	1.17618E-007	0.00000E+000	-5.00000E-002	9.76492E-004	5	..........a	-327.66
	288	57.8	-1.99981E-002	1.28891E-007	0.00000E+000	-2.00000E-002	9.88192E-004	5	..........a	-327.66
	291	58.4	1.00207E-002	1.40399E-007	0.00000E+000	1.00000E-002	9.79592E-004	5	..........a	-327.66
	294	59	3.99963E-002	1.52212E-007	0.00000E+000	4.00000E-002	9.86392E-004	5	..........a	-327.66
	297	59.6	6.99573E-002	1.64714E-007	0.00000E+000	7.00000E-002	9.98492E-004	5	..........a	-327.66
	300	60.2	9.99700E-002	1.77877E-007	0.00000E+000	1.00000E-001	9.94292E-004	5	..........a	-327.66
	303	60.8	1.29943E-001	1.92319E-007	0.00000E+000	1.30000E-001	9.78792E-004	5	..........a	-327.66
	306	61.4	1.59933E-001	2.07601E-007	0.00000E+000	1.60000E-001	9.85392E-004	5	..........a	-327.66
	309	62	1.89996E-001	2.23261E-007	0.00000E+000	1.90000E-001	1.00239E-003	5	..........a	-327.66
	312	62.6	2.19846E-001	2.35504E-007	0.00000E+000	2.20000E-001	9.66792E-004	5	..........a	-327.66
	315	63.2	2.49920E-001	2.42834E-007	0.00000E+000	2.50000E-001	9.68992E-004	5	..........a	-327.66
	318	63.8	2.79883E-001	2.51490E-007	0.00000E+000	2.80000E-001	9.84392E-004	5	..........a	-327.66
	321	64.4	3.09968E-001	2.61866E-007	0.00000E+000	3.10000E-001	9.91492E-004	5	..........a	-327.66
	324	65	3.39906E-001	2.78316E-007	0.00000E+000	3.40000E-001	9.79792E-004	5	..........a	-327.66
	327	65.6	3.69889E-001	2.88963E-007	0.00000E+000	3.70000E-001	9.73892E-004	5	..........a	-327.66
	330	66.2	3.99864E-001	3.03962E-007	0.00000E+000	4.00000E-001	9.70992E-004	5	..........a	-327.66
	333	66.8	4.29941E-001	3.18828E-007	0.00000E+000	4.30000E-001	9.83692E-004	5	..........a	-327.66
	336	67.4	4.59836E-001	3.35927E-007	0.00000E+000	4.60000E-001	9.84292E-004	5	..........a	-327.66
	339	68	4.89777E-001	3.70860E-007	0.00000E+000	4.90000E-001	9.91892E-004	5	..........a	-327.66
	342	68.6	5.19816E-001	3.83667E-007	0.00000E+000	5.20000E-001	9.68292E-004	5	..........a	-327.66
	345	69.2	5.49835E-001	3.95969E-007	0.00000E+000	5.50000E-001	9.77192E-004	5	..........a	-327.66
	348	69.8	5.79714E-001	5.57826E-007	0.00000E+000	5.80000E-001	9.68692E-004	5	..........a	-327.66
	351	70.4	6.09723E-001	5.01626E-007	0.00000E+000	6.10000E-001	9.75692E-004	5	..........a	-327.66
	354	71	6.39694E-001	4.64239E-007	0.00000E+000	6.40000E-001	9.90792E-004	5	..........a	-327.66
	357	71.6	6.69780E-001	4.64800E-007	0.00000E+000	6.70000E-001	9.73392E-004	5	..........a	-327.66
	360	72.2	6.99708E-001	4.96056E-007	0.00000E+000	7.00000E-001	9.84292E-004	5	..........a	-327.66
[...]
	968	193.8	4.20030E-001	6.61645E-009	0.00000E+000	4.20000E-001	9.66392E-004	5	..........a	-327.66
	971	194.4	3.90066E-001	-1.18728E-008	0.00000E+000	3.90000E-001	9.76492E-004	5	..........a	-327.66
	974	195	3.60030E-001	-2.94528E-008	0.00000E+000	3.60000E-001	9.79992E-004	5	..........a	-327.66
	977	195.6	3.30063E-001	-4.67272E-008	0.00000E+000	3.30000E-001	9.81392E-004	5	..........a	-327.66
	980	196.2	3.00142E-001	-6.36996E-008	0.00000E+000	3.00000E-001	9.80992E-004	5	..........a	-327.66
	983	196.8	2.70118E-001	-8.05612E-008	0.00000E+000	2.70000E-001	9.71092E-004	5	..........a	-327.66
	986	197.4	2.40097E-001	-9.25385E-008	0.00000E+000	2.40000E-001	9.69592E-004	5	..........a	-327.66
	989	198	2.10092E-001	-1.11625E-007	0.00000E+000	2.10000E-001	9.69092E-004	5	..........a	-327.66
	992	198.6	1.80205E-001	-1.29096E-007	0.00000E+000	1.80000E-001	9.89692E-004	5	..........a	-327.66
	995	199.2	1.50136E-001	-1.43885E-007	0.00000E+000	1.50000E-001	9.84092E-004	5	..........a	-327.66
	998	199.8	1.20131E-001	-1.55605E-007	0.00000E+000	1.20000E-001	9.93592E-004	5	..........a	-327.66
	1001	200.4	9.01691E-002	-1.65208E-007	0.00000E+000	9.00000E-002	9.66792E-004	5	..........a	-327.66
	1004	201	6.02057E-002	-1.73589E-007	0.00000E+000	6.00000E-002	9.78092E-004	5	..........a	-327.66
	1007	201.6	3.01463E-002	-1.81359E-007	0.00000E+000	3.00000E-002	9.68792E-004	5	..........a	-327.66
	1010	202.2	1.36992E-004	-1.88801E-007	0.00000E+000	7.45058E-009	9.88392E-004	5	..........a	-327.66
	1013	202.8	-2.98319E-002	-1.96023E-007	0.00000E+000	-3.00000E-002	9.57892E-004	5	..........a	-327.66
	1016	203.4	-5.97302E-002	-2.03474E-007	0.00000E+000	-6.00000E-002	9.76192E-004	5	..........a	-327.66
	1019	204	-8.98279E-002	-2.11303E-007	0.00000E+000	-9.00000E-002	9.75892E-004	5	..........a	-327.66
	1022	204.6	-1.19833E-001	-2.19588E-007	0.00000E+000	-1.20000E-001	9.82892E-004	5	..........a	-327.66
	1025	205.2	-1.49837E-001	-2.28354E-007	0.00000E+000	-1.50000E-001	9.87792E-004	5	..........a	-327.66
	1028	205.8	-1.79749E-001	-2.37587E-007	0.00000E+000	-1.80000E-001	9.53392E-004	5	..........a	-327.66
	1031	206.4	-2.09793E-001	-2.47489E-007	0.00000E+000	-2.10000E-001	9.73192E-004	5	..........a	-327.66
	1034	207	-2.39770E-001	-2.56614E-007	0.00000E+000	-2.40000E-001	9.85992E-004	5	..........a	-327.66
	1037	207.6	-2.69788E-001	-2.64498E-007	0.00000E+000	-2.70000E-001	9.76892E-004	5	..........a	-327.66
	1040	208.2	-2.99725E-001	-2.71272E-007	0.00000E+000	-3.00000E-001	9.53692E-004	5	..........a	-327.66
	1043	208.8	-3.29788E-001	-2.77026E-007	0.00000E+000	-3.30000E-001	9.76192E-004	5	..........a	-327.66
	1046	209.4	-3.59768E-001	-2.81644E-007	0.00000E+000	-3.60000E-001	9.83392E-004	5	..........a	-327.66
	1049	210	-3.89774E-001	-2.85218E-007	0.00000E+000	-3.90000E-001	9.68692E-004	5	..........a	-327.66
	1052	210.6	-4.19651E-001	-2.88066E-007	0.00000E+000	-4.20000E-001	9.54492E-004	5	..........a	-327.66
	1055	211.2	-4.49764E-001	-2.89007E-007	0.00000E+000	-4.50000E-001	9.83292E-004	5	..........a	-327.66
	1058	211.8	-4.79764E-001	-2.82820E-007	0.00000E+000	-4.80000E-001	9.88792E-004	5	..........a	-327.66
	1061	212.4	-5.09739E-001	-2.91856E-007	0.00000E+000	-5.10000E-001	9.70892E-004	5	..........a	-327.66
	1064	213	-5.39668E-001	-2.93318E-007	0.00000E+000	-5.40000E-001	9.87592E-004	5	..........a	-327.66
	1067	213.6	-5.69741E-001	-3.01280E-007	0.00000E+000	-5.70000E-001	9.85992E-004	5	..........a	-327.66
	1070	214.2	-5.99760E-001	-3.10716E-007	0.00000E+000	-6.00000E-001	9.71292E-004	5	..........a	-327.66
CURVE5	TABLE
	Pt	T	Vf	Im	Vu	Sig	Ach	IERange	Over	Temp
	#	s	V vs. Ref.	A	V	V	V	#	bits	deg C
	1071	214.4	-5.89767E-001	-2.64798E-007	0.00000E+000	-5.90000E-001	9.91492E-004	5	..........a	-327.66
	1072	214.6	-5.79716E-001	-2.35888E-007	0.00000E+000	-5.80000E-001	9.56092E-004	5	..........a	-327.66
	1073	214.8	-5.69786E-001	-2.11672E-007	0.00000E+000	-5.70000E-001	9.70992E-004	5	..........a	-327.66
	1074	215	-5.59813E-001	-1.75558E-007	0.00000E+000	-5.60000E-001	9.80592E-004	5	..........a	-327.66
	1075	215.2	-5.49815E-001	-1.65561E-007	0.00000E+000	-5.50000E-001	9.71292E-004	5	..........a	-327.66
	1076	215.4	-5.39715E-001	-1.52443E-007	0.00000E+000	-5.40000E-001	9.78092E-004	5	..........a	-327.66
	1077	215.6	-5.29809E-001	-1.39499E-007	0.00000E+000	-5.30000E-001	9.76892E-004	5	..........a	-327.66
	1078	215.8	-5.19795E-001	-1.27300E-007	0.00000E+000	-5.20000E-001	9.84292E-004	5	..........a	-327.66
	1079	216	-5.09815E-001	-1.16153E-007	0.00000E+000	-5.10000E-001	9.73992E-004	5	..........a	-327.66
	1080	216.2	-4.99797E-001	-1.05858E-007	0.00000E+000	-5.00000E-001	9.68192E-004	5	..........a	-327.66
	1081	216.4	-4.89818E-001	-9.62361E-008	0.00000E+000	-4.90000E-001	9.78792E-004	5	..........a	-327.66
	1082	216.6	-4.79805E-001	-8.72068E-008	0.00000E+000	-4.80000E-001	9.66992E-004	5	..........a	-327.66
	1083	216.8	-4.69841E-001	-7.78899E-008	0.00000E+000	-4.70000E-001	9.61192E-004	5	..........a	-327.66
	1084	217	-4.59808E-001	-6.15218E-008	0.00000E+000	-4.60000E-001	9.85692E-004	5	..........a	-327.66
	1085	217.2	-4.49842E-001	-5.82943E-008	0.00000E+000	-4.50000E-001	9.80792E-004	5	..........a	-327.66
	1086	217.4	-4.39864E-001	-5.28347E-008	0.00000E+000	-4.40000E-001	9.85092E-004	5	..........a	-327.66
	1087	217.6	-4.29848E-001	-4.67641E-008	0.00000E+000	-4.30000E-001	9.76792E-004	5	..........a	-327.66
	1088	217.8	-4.19810E-001	-4.04408E-008	0.00000E+000	-4.20000E-001	9.71592E-004	5	..........a	-327.66
	1089	218	-4.09866E-001	-3.41062E-008	0.00000E+000	-4.10000E-001	9.77992E-004	5	..........a	-327.66
	1090	218.2	-3.99876E-001	-2.79331E-008	0.00000E+000	-4.00000E-001	9.83792E-004	5	..........a	-327.66
	1091	218.4	-3.89928E-001	-2.19232E-008	0.00000E+000	-3.90000E-001	9.84192E-004	5	..........a	-327.66
	1092	218.6	-3.79844E-001	-1.59708E-008	0.00000E+000	-3.80000E-001	9.67792E-004	5	..........a	-327.66
	1093	218.8	-3.69848E-001	-1.02349E-008	0.00000E+000	-3.70000E-001	9.68892E-004	5	..........a	-327.66
	1094	219	-3.59875E-001	-4.60171E-009	0.00000E+000	-3.60000E-001	9.91992E-004	5	..........a	-327.66
	1095	219.2	-3.49898E-001	8.86000E-010	0.00000E+000	-3.50000E-001	9.57792E-004	5	..........a	-327.66
	1096	219.4	-3.39844E-001	6.28642E-009	0.00000E+000	-3.40000E-001	9.55992E-004	5	..........a	-327.66
	1097	219.6	-3.29930E-001	1.14587E-008	0.00000E+000	-3.30000E-001	1.00759E-003	5	..........a	-327.66
	1098	219.8	-3.19894E-001	1.65247E-008	0.00000E+000	-3.20000E-001	9.62692E-004	5	..........a	-327.66
	1099	220	-3.09940E-001	2.13974E-008	0.00000E+000	-3.10000E-001	9.68792E-004	5	..........a	-327.66
	1100	220.2	-2.99879E-001	2.63399E-008	0.00000E+000	-3.00000E-001	9.66892E-004	5	..........a	-327.66
	1101	220.4	-2.89927E-001	3.09622E-008	0.00000E+000	-2.90000E-001	9.69392E-004	5	..........a	-327.66
	1102	220.6	-2.79941E-001	3.55074E-008	0.00000E+000	-2.80000E-001	9.68492E-004	5	..........a	-327.66
	1103	220.8	-2.69905E-001	4.02479E-008	0.00000E+000	-2.70000E-001	9.75292E-004	5	..........a	-327.66
	1104	221	-2.59874E-001	4.48926E-008	0.00000E+000	-2.60000E-001	9.75192E-004	5	..........a	-327.66
	1105	221.2	-2.49937E-001	4.94056E-008	0.00000E+000	-2.50000E-001	9.76392E-004	5	..........a	-327.66
	1106	221.4	-2.39977E-001	5.38479E-008	0.00000E+000	-2.40000E-001	9.77492E-004	5	..........a	-327.66
	1107	221.6	-2.29964E-001	5.82329E-008	0.00000E+000	-2.30000E-001	9.68392E-004	5	..........a	-327.66
	1108	221.8	-2.19922E-001	6.84741E-008	0.00000E+000	-2.20000E-001	9.92892E-004	5	..........a	-327.66
	1109	222	-2.09945E-001	7.11647E-008	0.00000E+000	-2.10000E-001	9.93592E-004	5	..........a	-327.66
	1110	222.2	-2.00008E-001	7.45758E-008	0.00000E+000	-2.00000E-001	9.72692E-004	5	..........a	-327.66
	1111	222.4	-1.89936E-001	7.77915E-008	0.00000E+000	-1.90000E-001	9.82992E-004	5	..........a	-327.66
	1112	222.6	-1.79978E-001	8.13555E-008	0.00000E+000	-1.80000E-001	9.85292E-004	5	..........a	-327.66
	1113	222.8	-1.69951E-001	8.52507E-008	0.00000E+000	-1.70000E-001	9.84192E-004	5	..........a	-327.66
	1114	223	-1.60056E-001	8.90480E-008	0.00000E+000	-1.60000E-001	9.91092E-004	5	..........a	-327.66
	1115	223.2	-1.50017E-001	9.27765E-008	0.00000E+000	-1.50000E-001	9.76792E-004	5	..........a	-327.66
	1116	223.4	-1.39974E-001	9.64820E-008	0.00000E+000	-1.40000E-001	9.63692E-004	5	..........a	-327.66
	1117	223.6	-1.29980E-001	1.01583E-007	0.00000E+000	-1.30000E-001	9.78192E-004	5	..........a	-327.66
	1118	223.8	-1.20017E-001	1.04085E-007	0.00000E+000	-1.20000E-001	9.78592E-004	5	..........a	-327.66
	1119	224	-1.10012E-001	1.07643E-007	0.00000E+000	-1.10000E-001	9.91792E-004	5	..........a	-327.66
	1120	224.2	-9.99965E-002	1.11364E-007	0.00000E+000	-1.00000E-001	9.85892E-004	5	..........a	-327.66