File: data/raw/batch_data/20240424_ZU_GM0016_HL03_E12_CV50.DTA
EXPLAIN
TAG	CV
TITLE	LABEL	Cyclic Voltammetry	Test &Identifier
DATE	LABEL	4/24/2024	Date
TIME	LABEL	19:18:16	Time
NOTES	NOTES	1	&Notes...

PSTAT	PSTAT	REF600P-43058	Potentiostat
VINIT	POTEN	0.00000E+000	T	Initial &E (V)
VLIMIT1	POTEN	-6.00000E-001	F	Scan Limit &1 (V)
VLIMIT2	POTEN	8.00000E-001	F	Scan Limit &2 (V)
VFINAL	POTEN	0.00000E+000	T	Final &E (V)
SCANRATE	QUANT	4.99999E+001	&Scan Rate (mV/s)
STEPSIZE	QUANT	1.00000E+001	St&ep Size (mV)
CYCLES	IQUANT	4	C&ycles (#)
IMODE	SELECTOR	0	I/E Range &Mode
IRANGE	QUANT	1.00000E-005	&Max Current (mA)
AREA	QUANT	1.00000E+000	Electrode &Area (cm^2)
ELECTRODETYPE	SELECTOR	0	Electrode Type
STRIPPING	TOGGLE	F	Used for Stripping
POLARITY	TOGGLE	F	Signal Polarity
CONDIT	TWOPARAM	F	1.50000E+001	0.00000E+000	Conditionin&g	Time(s)	E(V)
DELAY	TWOPARAM	T	1.00000E+001	0.00000E+000	Init. De&lay	Time(s)	Stab.(mV/s)
EQDELAY	QUANT	1.00000E+001	Equil. &Time (s)
IRCOMP	SELECTOR	0	IRCom&p
PFCOR	QUANT	5.00000E+001	PF Corr. (ohm)
SAMPLINGMODE	SELECTOR	1	Sampling &Mode
OCVCURVE	TABLE	39
	Pt	T	Vf	Vm	Ach	Over	Temp
	#	s	V vs. Ref.	V	V	bits	deg C
	0	0.258333	-3.92755E-002	-3.92755E-002	2.52792E-004	..........a	-327.66
	1	0.516667	-3.92780E-002	-3.94050E-002	2.45859E-004	..........a	-327.66
	2	0.775	-3.92934E-002	-3.95393E-002	2.57592E-004	..........a	-327.66
	3	1.03333	-3.93381E-002	-3.96872E-002	2.53726E-004	..........a	-327.66
	4	1.29167	-3.94208E-002	-3.98134E-002	2.42259E-004	..........a	-327.66
	5	1.55	-3.95346E-002	-3.99424E-002	2.67726E-004	..........a	-327.66
	6	1.80833	-3.96647E-002	-4.00741E-002	2.52459E-004	..........a	-327.66
	7	2.06667	-3.97987E-002	-4.01978E-002	2.47792E-004	..........a	-327.66
	8	2.325	-3.99312E-002	-4.03293E-002	2.58659E-004	..........a	-327.66
	9	2.58333	-4.00614E-002	-4.04503E-002	2.44926E-004	..........a	-327.66
	10	2.84167	-4.01894E-002	-4.05717E-002	2.66392E-004	..........a	-327.66
	11	3.1	-4.03154E-002	-4.06885E-002	2.37326E-004	..........a	-327.66
	12	3.35833	-4.04391E-002	-4.08114E-002	2.66526E-004	..........a	-327.66
	13	3.61667	-4.05607E-002	-4.09256E-002	2.44992E-004	..........a	-327.66
	14	3.875	-4.06807E-002	-4.10452E-002	2.50726E-004	..........a	-327.66
	15	4.13333	-4.07992E-002	-4.11444E-002	2.58926E-004	..........a	-327.66
	16	4.39167	-4.09157E-002	-4.12655E-002	2.42592E-004	..........a	-327.66
	17	4.65	-4.10297E-002	-4.13715E-002	2.59592E-004	..........a	-327.66
	18	4.90833	-4.11416E-002	-4.14684E-002	2.58459E-004	..........a	-327.66
	19	5.16667	-4.12516E-002	-4.15899E-002	2.41992E-004	..........a	-327.66
	20	5.425	-4.13601E-002	-4.16914E-002	2.61192E-004	..........a	-327.66
	21	5.68333	-4.14678E-002	-4.17859E-002	2.57192E-004	..........a	-327.66
	22	5.94167	-4.15747E-002	-4.19041E-002	2.41326E-004	..........a	-327.66
	23	6.2	-4.16804E-002	-4.20040E-002	2.42192E-004	..........a	-327.66
	24	6.45833	-4.17853E-002	-4.20931E-002	2.63459E-004	..........a	-327.66
	25	6.71667	-4.18891E-002	-4.21992E-002	2.36859E-004	..........a	-327.66
	26	6.975	-4.19908E-002	-4.22957E-002	2.42726E-004	..........a	-327.66
	27	7.23333	-4.20905E-002	-4.23887E-002	2.42326E-004	..........a	-327.66
	28	7.49167	-4.21888E-002	-4.24823E-002	2.54392E-004	..........a	-327.66
	29	7.75	-4.22855E-002	-4.25697E-002	2.49659E-004	..........a	-327.66
	30	8.00833	-4.23802E-002	-4.26603E-002	2.64192E-004	..........a	-327.66
	31	8.26667	-4.24726E-002	-4.27474E-002	2.45259E-004	..........a	-327.66
	32	8.525	-4.25631E-002	-4.28385E-002	2.51392E-004	..........a	-327.66
	33	8.78333	-4.26526E-002	-4.29260E-002	2.58326E-004	..........a	-327.66
	34	9.04167	-4.27418E-002	-4.30195E-002	2.36526E-004	..........a	-327.66
	35	9.3	-4.28310E-002	-4.31039E-002	2.36926E-004	..........a	-327.66
	36	9.5583	-4.29204E-002	-4.31930E-002	2.36192E-004	..........a	-327.66
	37	9.8167	-4.30093E-002	-4.32728E-002	2.46859E-004	..........a	-327.66
	38	10.075	-4.30969E-002	-4.33570E-002	2.62792E-004	..........a	-327.66
EOC	QUANT	-0.0430969	Open Circuit (V)
PSTATMODEL	IQUANT	7	Pstat Model
PSTATSECTION	LABEL	REF600P-43058	Pstat Section
PSTATSERIALNO	LABEL	43058	Pstat Serial Number
CTRLMODE	IQUANT	1	Control Mode
ELECTROMETER	IQUANT	0	RE=0 or CS=1
IESTAB	IQUANT	2	I/E Stability
CASPEED	IQUANT	4	Control Amp Speed
CONVENTION	IQUANT	1	Current Convention
ICHRANGE	IQUANT	2	Ich Range
ICHRANGEMODE	TOGGLE	F	Ich Auto Range
ICHOFFSETENABLE	TOGGLE	F	Ich Offset Enable
ICHOFFSET	QUANT	0	Ich Offset (V)
ICHFILTER	IQUANT	2	Ich Filter
VCHRANGE	IQUANT	2	Vch Range
VCHRANGEMODE	TOGGLE	F	Vch Auto Range
VCHOFFSETENABLE	TOGGLE	F	Vch Offset Enable
VCHOFFSET	QUANT	0	Vch Offset (V)
VCHFILTER	IQUANT	2	Vch Filter
ACHRANGE	IQUANT	2	Ach Range
ACHOFFSETENABLE	TOGGLE	F	Ach Offset Enable
ACHOFFSET	QUANT	0	Ach Offset (V)
ACHFILTER	IQUANT	1	Ach Filter
IERANGELOWERLIMIT	IQUANT	1	I/E Range Lower Limit
IERANGEMODE	TOGGLE	T	I/E AutoRange
IERANGE	IQUANT	4	I/E Range
POSFEEDENABLE	TOGGLE	F	Positive Feedback IR Comp
POSFEEDRESISTANCE	QUANT	0	Positive Feedback Resistance (ohm)
ACHSELECT	IQUANT	4	Ach Select
SENSECABLEID	IQUANT	7	Sense Cable ID
PWRCABLEID	IQUANT	7	Power Cable ID
DCCALDATE	LABEL	3/22/2024	DC Calibration Date
ACCALDATE	LABEL	3/22/2024	AC Calibration Date
THERMOSELECT	IQUANT	1	Thermo Select
FRAMEWORKVERSION	LABEL	7.8.4	Framework Version
INSTRUMENTVERSION	LABEL	4.42	Instrument Version
CURVE1	TABLE
	Pt	T	Vf	Im	Vu	Sig	Ach	IERange	Over	Temp
	#	s	V vs. Ref.	A	V	V	V	#	bits	deg C
	0	0.2	-4.30592E-002	6.26780E-010	0.00000E+000	-4.31000E-002	1.01799E-003	5	..........a	-327.66
	2	0.6	-6.29748E-002	-3.78514E-009	0.00000E+000	-6.31000E-002	1.00159E-003	5	..........a	-327.66
	4	1	-8.30485E-002	-6.90288E-009	0.00000E+000	-8.31000E-002	1.01199E-003	5	..........a	-327.66
	6	1.4	-1.02987E-001	-9.76499E-009	0.00000E+000	-1.03100E-001	1.00409E-003	5	..........a	-327.66
	8	1.8	-1.23096E-001	-1.25855E-008	0.00000E+000	-1.23100E-001	1.01289E-003	5	..........a	-327.66
	10	2.2	-1.43022E-001	-1.53553E-008	0.00000E+000	-1.43100E-001	1.00629E-003	5	..........a	-327.66
	12	2.6	-1.63064E-001	-1.80084E-008	0.00000E+000	-1.63100E-001	1.02959E-003	5	..........a	-327.66
	14	3	-1.82946E-001	-2.05700E-008	0.00000E+000	-1.83100E-001	1.00679E-003	5	..........a	-327.66
	16	3.4	-2.03064E-001	-2.30619E-008	0.00000E+000	-2.03100E-001	1.03599E-003	5	..........a	-327.66
	18	3.8	-2.22976E-001	-2.55659E-008	0.00000E+000	-2.23100E-001	1.00239E-003	5	..........a	-327.66
	20	4.2	-2.43015E-001	-2.81453E-008	0.00000E+000	-2.43100E-001	9.97892E-004	5	..........a	-327.66
	22	4.6	-2.62910E-001	-3.07695E-008	0.00000E+000	-2.63100E-001	1.00749E-003	5	..........a	-327.66
	24	5	-2.83037E-001	-3.35260E-008	0.00000E+000	-2.83100E-001	1.05399E-003	5	..........a	-327.66
	26	5.4	-3.02930E-001	-3.64112E-008	0.00000E+000	-3.03100E-001	1.02839E-003	5	..........a	-327.66
	28	5.8	-3.22990E-001	-3.94088E-008	0.00000E+000	-3.23100E-001	1.05009E-003	5	..........a	-327.66
	30	6.2	-3.42907E-001	-4.25645E-008	0.00000E+000	-3.43100E-001	9.94892E-004	5	..........a	-327.66
	32	6.6	-3.62978E-001	-4.57246E-008	0.00000E+000	-3.63100E-001	1.02979E-003	5	..........a	-327.66
	34	7	-3.82919E-001	-4.90034E-008	0.00000E+000	-3.83100E-001	1.00869E-003	5	..........a	-327.66
	36	7.4	-4.02992E-001	-5.22783E-008	0.00000E+000	-4.03100E-001	1.00309E-003	5	..........a	-327.66
	38	7.8	-4.22942E-001	-5.56334E-008	0.00000E+000	-4.23100E-001	9.88292E-004	5	..........a	-327.66
	40	8.2	-4.42996E-001	-5.89970E-008	0.00000E+000	-4.43100E-001	1.02349E-003	5	..........a	-327.66
	42	8.6	-4.62868E-001	-6.24040E-008	0.00000E+000	-4.63100E-001	1.01849E-003	5	..........a	-327.66
	44	9	-4.82957E-001	-6.58453E-008	0.00000E+000	-4.83100E-001	1.03009E-003	5	..........a	-327.66
	46	9.4	-5.02897E-001	-6.93293E-008	0.00000E+000	-5.03100E-001	1.01679E-003	5	..........a	-327.66
	48	9.8	-5.22884E-001	-7.29200E-008	0.00000E+000	-5.23100E-001	1.01159E-003	5	..........a	-327.66
	50	10.2	-5.42860E-001	-7.65221E-008	0.00000E+000	-5.43100E-001	1.02719E-003	5	..........a	-327.66
	52	10.6	-5.62972E-001	-8.01459E-008	0.00000E+000	-5.63100E-001	1.01529E-003	5	..........a	-327.66
	54	11	-5.82884E-001	-8.38724E-008	0.00000E+000	-5.83100E-001	1.02029E-003	5	..........a	-327.66
	56	11.4	-6.02939E-001	-8.75940E-008	0.00000E+000	-6.03100E-001	1.00729E-003	5	..........a	-327.66
	58	11.8	-5.82896E-001	-7.09582E-008	0.00000E+000	-5.83100E-001	1.00119E-003	5	..........a	-327.66
	60	12.2	-5.63024E-001	-6.15091E-008	0.00000E+000	-5.63100E-001	1.04049E-003	5	..........a	-327.66
	62	12.6	-5.42856E-001	-5.43666E-008	0.00000E+000	-5.43100E-001	1.02439E-003	5	..........a	-327.66
	64	13	-5.23024E-001	-4.86737E-008	0.00000E+000	-5.23100E-001	1.00339E-003	5	..........a	-327.66
	66	13.4	-5.02928E-001	-4.37246E-008	0.00000E+000	-5.03100E-001	9.91692E-004	5	..........a	-327.66
	68	13.8	-4.82994E-001	-3.92054E-008	0.00000E+000	-4.83100E-001	1.00919E-003	5	..........a	-327.66
	70	14.2	-4.62882E-001	-3.52220E-008	0.00000E+000	-4.63100E-001	1.00249E-003	5	..........a	-327.66
	72	14.6	-4.42985E-001	-3.14914E-008	0.00000E+000	-4.43100E-001	1.01339E-003	5	..........a	-327.66
	74	15	-4.22948E-001	-2.80615E-008	0.00000E+000	-4.23100E-001	1.01269E-003	5	..........a	-327.66
	76	15.4	-4.02990E-001	-2.48154E-008	0.00000E+000	-4.03100E-001	1.03539E-003	5	..........a	-327.66
	78	15.8	-3.82933E-001	-2.17332E-008	0.00000E+000	-3.83100E-001	1.01819E-003	5	..........a	-327.66
	80	16.2	-3.62990E-001	-1.87509E-008	0.00000E+000	-3.63100E-001	1.01189E-003	5	..........a	-327.66
	82	16.6	-3.42901E-001	-1.59157E-008	0.00000E+000	-3.43100E-001	1.00279E-003	5	..........a	-327.66
	84	17	-3.22978E-001	-1.32268E-008	0.00000E+000	-3.23100E-001	1.02989E-003	5	..........a	-327.66
	86	17.4	-3.02971E-001	-1.06299E-008	0.00000E+000	-3.03100E-001	9.92192E-004	5	..........a	-327.66
	88	17.8	-2.82972E-001	-8.11166E-009	0.00000E+000	-2.83100E-001	1.02659E-003	5	..........a	-327.66
	90	18.2	-2.62908E-001	-5.72692E-009	0.00000E+000	-2.63100E-001	1.02719E-003	5	..........a	-327.66
	92	18.6	-2.42959E-001	-3.39583E-009	0.00000E+000	-2.43100E-001	1.00839E-003	5	..........a	-327.66
	94	19	-2.22976E-001	-1.13701E-009	0.00000E+000	-2.23100E-001	1.02789E-003	5	..........a	-327.66
	96	19.4	-2.03108E-001	1.04988E-009	0.00000E+000	-2.03100E-001	1.03549E-003	5	..........a	-327.66
	98	19.8	-1.82968E-001	3.15821E-009	0.00000E+000	-1.83100E-001	1.01409E-003	5	..........a	-327.66
	100	20.2	-1.63085E-001	5.17126E-009	0.00000E+000	-1.63100E-001	1.00959E-003	5	..........a	-327.66
	102	20.6	-1.43027E-001	7.18352E-009	0.00000E+000	-1.43100E-001	1.00939E-003	5	..........a	-327.66
	104	21	-1.23084E-001	9.11797E-009	0.00000E+000	-1.23100E-001	1.03019E-003	5	..........a	-327.66
	106	21.4	-1.02988E-001	1.10069E-008	0.00000E+000	-1.03100E-001	1.00089E-003	5	..........a	-327.66
	108	21.8	-8.32096E-002	1.29021E-008	0.00000E+000	-8.31000E-002	1.02629E-003	5	..........a	-327.66
	110	22.2	-6.29438E-002	1.47994E-008	0.00000E+000	-6.31000E-002	1.01909E-003	5	..........a	-327.66
	112	22.6	-4.30586E-002	1.66875E-008	0.00000E+000	-4.31000E-002	1.02119E-003	5	..........a	-327.66
	114	23	-2.29814E-002	1.86091E-008	0.00000E+000	-2.31000E-002	1.03569E-003	5	..........a	-327.66
	116	23.4	-3.10716E-003	2.04394E-008	0.00000E+000	-3.09999E-003	1.01259E-003	5	..........a	-327.66
	118	23.8	1.70647E-002	2.22870E-008	0.00000E+000	1.69000E-002	1.01939E-003	5	..........a	-327.66
	120	24.2	3.69478E-002	2.41188E-008	0.00000E+000	3.69000E-002	9.95192E-004	5	..........a	-327.66
	122	24.6	5.70089E-002	2.61003E-008	0.00000E+000	5.69000E-002	1.02509E-003	5	..........a	-327.66
	124	25	7.68369E-002	2.81738E-008	0.00000E+000	7.69000E-002	1.02229E-003	5	..........a	-327.66
	126	25.4	9.70772E-002	3.04785E-008	0.00000E+000	9.69000E-002	1.02519E-003	5	..........a	-327.66
	128	25.8	1.16836E-001	3.29892E-008	0.00000E+000	1.16900E-001	1.02869E-003	5	..........a	-327.66
	130	26.2	1.37010E-001	3.81748E-008	0.00000E+000	1.36900E-001	1.00799E-003	5	..........a	-327.66
	132	26.6	1.56849E-001	4.36970E-008	0.00000E+000	1.56900E-001	1.02459E-003	5	..........a	-327.66
	134	27	1.77006E-001	4.39037E-008	0.00000E+000	1.76900E-001	1.01579E-003	5	..........a	-327.66
	136	27.4	1.96894E-001	4.58514E-008	0.00000E+000	1.96900E-001	1.01469E-003	5	..........a	-327.66
	138	27.8	2.16953E-001	4.82288E-008	0.00000E+000	2.16900E-001	1.00539E-003	5	..........a	-327.66
	140	28.2	2.36872E-001	5.10155E-008	0.00000E+000	2.36900E-001	1.03129E-003	5	..........a	-327.66
	142	28.6	2.56912E-001	5.40158E-008	0.00000E+000	2.56900E-001	1.02489E-003	5	..........a	-327.66
	144	29	2.76870E-001	5.71702E-008	0.00000E+000	2.76900E-001	1.04219E-003	5	..........a	-327.66
	146	29.4	2.96989E-001	6.03928E-008	0.00000E+000	2.96900E-001	1.01789E-003	5	..........a	-327.66
	148	29.8	3.16890E-001	6.37074E-008	0.00000E+000	3.16900E-001	1.03219E-003	5	..........a	-327.66
	150	30.2	3.36962E-001	6.71807E-008	0.00000E+000	3.36900E-001	1.01189E-003	5	..........a	-327.66
	152	30.6	3.56866E-001	7.09419E-008	0.00000E+000	3.56900E-001	1.03929E-003	5	..........a	-327.66
	154	31	3.76968E-001	7.49506E-008	0.00000E+000	3.76900E-001	1.02869E-003	5	..........a	-327.66
	156	31.4	3.96890E-001	7.93093E-008	0.00000E+000	3.96900E-001	1.04689E-003	5	..........a	-327.66
	158	31.8	4.16882E-001	8.43052E-008	0.00000E+000	4.16900E-001	1.01879E-003	5	..........a	-327.66
	160	32.2	4.36788E-001	8.95026E-008	0.00000E+000	4.36900E-001	1.04029E-003	5	..........a	-327.66
	162	32.6	4.56916E-001	9.42842E-008	0.00000E+000	4.56900E-001	9.99692E-004	5	..........a	-327.66
	164	33	4.76818E-001	9.89319E-008	0.00000E+000	4.76900E-001	1.01649E-003	5	..........a	-327.66
	166	33.4	4.96874E-001	1.03443E-007	0.00000E+000	4.96900E-001	1.01329E-003	5	..........a	-327.66
	168	33.8	5.16803E-001	1.07844E-007	0.00000E+000	5.16900E-001	1.03979E-003	5	..........a	-327.66
	170	34.2	5.36858E-001	1.12175E-007	0.00000E+000	5.36900E-001	1.00919E-003	5	..........a	-327.66
	172	34.6	5.56768E-001	1.16450E-007	0.00000E+000	5.56900E-001	1.00959E-003	5	..........a	-327.66
	174	35	5.76910E-001	1.20649E-007	0.00000E+000	5.76900E-001	1.00579E-003	5	..........a	-327.66
	176	35.4	5.96799E-001	1.25044E-007	0.00000E+000	5.96900E-001	1.02839E-003	5	..........a	-327.66
	178	35.8	6.16808E-001	1.29506E-007	0.00000E+000	6.16900E-001	1.02159E-003	5	..........a	-327.66
	180	36.2	6.36739E-001	1.34215E-007	0.00000E+000	6.36900E-001	1.02969E-003	5	..........a	-327.66
	182	36.6	6.56812E-001	1.39077E-007	0.00000E+000	6.56900E-001	1.02689E-003	5	..........a	-327.66
	184	37	6.76781E-001	1.44226E-007	0.00000E+000	6.76900E-001	9.92492E-004	5	..........a	-327.66
	186	37.4	6.96774E-001	1.49821E-007	0.00000E+000	6.96900E-001	1.01119E-003	5	..........a	-327.66
	188	37.8	7.16726E-001	1.56065E-007	0.00000E+000	7.16900E-001	1.01949E-003	5	..........a	-327.66
	190	38.2	7.36795E-001	1.63157E-007	0.00000E+000	7.36900E-001	1.01369E-003	5	..........a	-327.66
	192	38.6	7.56765E-001	1.71485E-007	0.00000E+000	7.56900E-001	1.01179E-003	5	..........a	-327.66
	194	39	7.76758E-001	1.81253E-007	0.00000E+000	7.76900E-001	1.01129E-003	5	..........a	-327.66
	196	39.4	7.96715E-001	1.92814E-007	0.00000E+000	7.96900E-001	1.01059E-003	5	..........a	-327.66
CURVE2	TABLE
	Pt	T	Vf	Im	Vu	Sig	Ach	IERange	Over	Temp
	#	s	V vs. Ref.	A	V	V	V	#	bits	deg C
	197	39.6	7.89950E-001	1.61989E-007	0.00000E+000	7.90000E-001	1.02729E-003	5	..........a	-327.66
	200	40.2	7.59870E-001	1.06708E-007	0.00000E+000	7.60000E-001	1.02279E-003	5	..........a	-327.66
	203	40.8	7.29906E-001	8.15051E-008	0.00000E+000	7.30000E-001	1.02479E-003	5	..........a	-327.66
	206	41.4	6.99912E-001	6.61371E-008	0.00000E+000	7.00000E-001	1.01259E-003	5	..........a	-327.66
	209	42	6.69976E-001	5.50889E-008	0.00000E+000	6.70000E-001	1.02879E-003	5	..........a	-327.66
	212	42.6	6.39904E-001	4.63865E-008	0.00000E+000	6.40000E-001	1.02989E-003	5	..........a	-327.66
	215	43.2	6.09942E-001	3.90966E-008	0.00000E+000	6.10000E-001	1.04839E-003	5	..........a	-327.66
	218	43.8	5.80010E-001	3.29446E-008	0.00000E+000	5.80000E-001	1.00159E-003	5	..........a	-327.66
	221	44.4	5.50024E-001	2.76362E-008	0.00000E+000	5.50000E-001	1.00489E-003	5	..........a	-327.66
	224	45	5.19960E-001	2.26775E-008	0.00000E+000	5.20000E-001	1.02989E-003	5	..........a	-327.66
	227	45.6	4.89932E-001	1.82929E-008	0.00000E+000	4.90000E-001	1.04119E-003	5	..........a	-327.66
	230	46.2	4.60005E-001	1.41016E-008	0.00000E+000	4.60000E-001	1.01009E-003	5	..........a	-327.66
	233	46.8	4.29993E-001	9.82163E-009	0.00000E+000	4.30000E-001	1.04069E-003	5	..........a	-327.66
	236	47.4	3.99993E-001	5.47982E-009	0.00000E+000	4.00000E-001	1.01119E-003	5	..........a	-327.66
	239	48	3.70045E-001	1.08975E-009	0.00000E+000	3.70000E-001	1.00409E-003	5	..........a	-327.66
	242	48.6	3.40090E-001	-3.45177E-009	0.00000E+000	3.40000E-001	9.87192E-004	5	..........a	-327.66
	245	49.2	3.10052E-001	-8.06969E-009	0.00000E+000	3.10000E-001	9.92592E-004	5	..........a	-327.66
	248	49.8	2.79978E-001	-1.31102E-008	0.00000E+000	2.80000E-001	1.03819E-003	5	..........a	-327.66
	251	50.4	2.50000E-001	-1.86176E-008	0.00000E+000	2.50000E-001	1.00679E-003	5	..........a	-327.66
	254	51	2.20024E-001	-2.38825E-008	0.00000E+000	2.20000E-001	9.97992E-004	5	..........a	-327.66
	257	51.6	1.90107E-001	-2.72795E-008	0.00000E+000	1.90000E-001	1.01269E-003	5	..........a	-327.66
	260	52.2	1.60048E-001	-2.80582E-008	0.00000E+000	1.60000E-001	1.04639E-003	5	..........a	-327.66
	263	52.8	1.30028E-001	-2.74385E-008	0.00000E+000	1.30000E-001	1.02399E-003	5	..........a	-327.66
[...]
	1033	206.8	7.69897E-001	1.49120E-007	0.00000E+000	7.70000E-001	9.95692E-004	5	..........a	-327.66
	1036	207.4	7.99856E-001	1.68160E-007	0.00000E+000	8.00000E-001	1.01869E-003	5	..........a	-327.66
CURVE5	TABLE
	Pt	T	Vf	Im	Vu	Sig	Ach	IERange	Over	Temp
	#	s	V vs. Ref.	A	V	V	V	#	bits	deg C
	1037	207.6	7.89931E-001	1.35846E-007	0.00000E+000	7.90000E-001	1.00209E-003	5	..........a	-327.66
	1038	207.8	7.79880E-001	1.15687E-007	0.00000E+000	7.80000E-001	9.95792E-004	5	..........a	-327.66
	1039	208	7.69892E-001	1.01357E-007	0.00000E+000	7.70000E-001	1.00749E-003	5	..........a	-327.66
	1040	208.2	7.59863E-001	9.06085E-008	0.00000E+000	7.60000E-001	9.90392E-004	5	..........a	-327.66
	1041	208.4	7.49975E-001	8.20367E-008	0.00000E+000	7.50000E-001	1.00159E-003	5	..........a	-327.66
	1042	208.6	7.39899E-001	7.51841E-008	0.00000E+000	7.40000E-001	1.01509E-003	5	..........a	-327.66
	1043	208.8	7.29860E-001	6.93802E-008	0.00000E+000	7.30000E-001	1.02479E-003	5	..........a	-327.66
	1044	209	7.19882E-001	6.43844E-008	0.00000E+000	7.20000E-001	1.01309E-003	5	..........a	-327.66
	1045	209.2	7.09976E-001	6.00143E-008	0.00000E+000	7.10000E-001	1.00609E-003	5	..........a	-327.66
	1046	209.4	6.99920E-001	5.61312E-008	0.00000E+000	7.00000E-001	9.90092E-004	5	..........a	-327.66
	1047	209.6	6.89923E-001	5.25682E-008	0.00000E+000	6.90000E-001	1.01179E-003	5	..........a	-327.66
	1048	209.8	6.79930E-001	4.93937E-008	0.00000E+000	6.80000E-001	1.00039E-003	5	..........a	-327.66
	1049	210	6.69971E-001	4.63869E-008	0.00000E+000	6.70000E-001	1.03159E-003	5	..........a	-327.66
	1050	210.2	6.59915E-001	4.36090E-008	0.00000E+000	6.60000E-001	9.97892E-004	5	..........a	-327.66
	1051	210.4	6.49925E-001	4.09879E-008	0.00000E+000	6.50000E-001	1.00279E-003	5	..........a	-327.66
	1052	210.6	6.39893E-001	3.85114E-008	0.00000E+000	6.40000E-001	1.02199E-003	5	..........a	-327.66
	1053	210.8	6.30029E-001	3.62133E-008	0.00000E+000	6.30000E-001	9.96292E-004	5	..........a	-327.66
	1054	211	6.19913E-001	3.39937E-008	0.00000E+000	6.20000E-001	9.91692E-004	5	..........a	-327.66
	1055	211.2	6.09975E-001	3.19284E-008	0.00000E+000	6.10000E-001	9.87792E-004	5	..........a	-327.66
	1056	211.4	5.99975E-001	2.99415E-008	0.00000E+000	6.00000E-001	1.01589E-003	5	..........a	-327.66
	1057	211.6	5.89977E-001	2.81783E-008	0.00000E+000	5.90000E-001	1.02949E-003	5	..........a	-327.66
	1058	211.8	5.79994E-001	2.64192E-008	0.00000E+000	5.80000E-001	9.99492E-004	5	..........a	-327.66
	1059	212	5.69959E-001	2.47509E-008	0.00000E+000	5.70000E-001	1.01599E-003	5	..........a	-327.66
	1060	212.2	5.59927E-001	2.31566E-008	0.00000E+000	5.60000E-001	1.00399E-003	5	..........a	-327.66
	1061	212.4	5.50022E-001	2.15029E-008	0.00000E+000	5.50000E-001	9.80992E-004	5	..........a	-327.66
	1062	212.6	5.39998E-001	1.99128E-008	0.00000E+000	5.40000E-001	9.92092E-004	5	..........a	-327.66
	1063	212.8	5.29941E-001	1.83718E-008	0.00000E+000	5.30000E-001	1.01099E-003	5	..........a	-327.66
	1064	213	5.19965E-001	1.69044E-008	0.00000E+000	5.20000E-001	1.01109E-003	5	..........a	-327.66
	1065	213.2	5.09987E-001	1.55062E-008	0.00000E+000	5.10000E-001	1.02979E-003	5	..........a	-327.66
	1066	213.4	5.00023E-001	1.42277E-008	0.00000E+000	5.00000E-001	9.94292E-004	5	..........a	-327.66
	1067	213.6	4.89923E-001	1.29964E-008	0.00000E+000	4.90000E-001	1.01809E-003	5	..........a	-327.66
	1068	213.8	4.79918E-001	1.17481E-008	0.00000E+000	4.80000E-001	1.02059E-003	5	..........a	-327.66
	1069	214	4.70020E-001	1.04572E-008	0.00000E+000	4.70000E-001	9.93092E-004	5	..........a	-327.66
	1070	214.2	4.59988E-001	9.14372E-009	0.00000E+000	4.60000E-001	1.00809E-003	5	..........a	-327.66
	1071	214.4	4.49914E-001	7.79740E-009	0.00000E+000	4.50000E-001	1.00929E-003	5	..........a	-327.66
	1072	214.6	4.39952E-001	6.49497E-009	0.00000E+000	4.40000E-001	1.02729E-003	5	..........a	-327.66
	1073	214.8	4.29989E-001	5.15207E-009	0.00000E+000	4.30000E-001	1.00329E-003	5	..........a	-327.66
	1074	215	4.20004E-001	3.80493E-009	0.00000E+000	4.20000E-001	1.00709E-003	5	..........a	-327.66
	1075	215.2	4.09939E-001	2.39556E-009	0.00000E+000	4.10000E-001	1.03219E-003	5	..........a	-327.66
	1076	215.4	3.99996E-001	1.03106E-009	0.00000E+000	4.00000E-001	9.99492E-004	5	..........a	-327.66
	1077	215.6	3.90036E-001	-4.00768E-010	0.00000E+000	3.90000E-001	1.02179E-003	5	..........a	-327.66
	1078	215.8	3.80048E-001	-1.82375E-009	0.00000E+000	3.80000E-001	9.86792E-004	5	..........a	-327.66
	1079	216	3.70060E-001	-3.27043E-009	0.00000E+000	3.70000E-001	9.86792E-004	5	..........a	-327.66
	1080	216.2	3.60031E-001	-4.67861E-009	0.00000E+000	3.60000E-001	1.01159E-003	5	..........a	-327.66
	1081	216.4	3.50054E-001	-6.13101E-009	0.00000E+000	3.50000E-001	1.00099E-003	5	..........a	-327.66
	1082	216.6	3.40071E-001	-7.61282E-009	0.00000E+000	3.40000E-001	9.98792E-004	5	..........a	-327.66
	1083	216.8	3.30054E-001	-9.12257E-009	0.00000E+000	3.30000E-001	1.02229E-003	5	..........a	-327.66
	1084	217	3.20060E-001	-1.07743E-008	0.00000E+000	3.20000E-001	1.03189E-003	5	..........a	-327.66
	1085	217.2	3.10031E-001	-1.23668E-008	0.00000E+000	3.10000E-001	1.00389E-003	5	..........a	-327.66
	1086	217.4	3.00035E-001	-1.41021E-008	0.00000E+000	3.00000E-001	9.91292E-004	5	..........a	-327.66
	1087	217.6	2.90056E-001	-1.58856E-008	0.00000E+000	2.90000E-001	1.01069E-003	5	..........a	-327.66
	1088	217.8	2.79984E-001	-1.77554E-008	0.00000E+000	2.80000E-001	1.04689E-003	5	..........a	-327.66
	1089	218	2.70081E-001	-1.97302E-008	0.00000E+000	2.70000E-001	1.00289E-003	5	..........a	-327.66
	1090	218.2	2.60045E-001	-2.17692E-008	0.00000E+000	2.60000E-001	1.00029E-003	5	..........a	-327.66
	1091	218.4	2.50012E-001	-2.38699E-008	0.00000E+000	2.50000E-001	1.01079E-003	5	..........a	-327.66
	1092	218.6	2.40068E-001	-2.59111E-008	0.00000E+000	2.40000E-001	9.86492E-004	5	..........a	-327.66
	1093	218.8	2.30003E-001	-2.79001E-008	0.00000E+000	2.30000E-001	1.00759E-003	5	..........a	-327.66
	1094	219	2.20040E-001	-2.96766E-008	0.00000E+000	2.20000E-001	9.91992E-004	5	..........a	-327.66
	1095	219.2	2.10031E-001	-3.12759E-008	0.00000E+000	2.10000E-001	1.01339E-003	5	..........a	-327.66
	1096	219.4	2.00034E-001	-3.24650E-008	0.00000E+000	2.00000E-001	1.01039E-003	5	..........a	-327.66
	1097	219.6	1.90120E-001	-3.32688E-008	0.00000E+000	1.90000E-001	9.93692E-004	5	..........a	-327.66
	1098	219.8	1.80097E-001	-3.36973E-008	0.00000E+000	1.80000E-001	1.01209E-003	5	..........a	-327.66
	1099	220	1.70073E-001	-3.38132E-008	0.00000E+000	1.70000E-001	1.00459E-003	5	..........a	-327.66
	1100	220.2	1.60061E-001	-3.36314E-008	0.00000E+000	1.60000E-001	1.01339E-003	5	..........a	-327.66
	1101	220.4	1.50054E-001	-3.32219E-008	0.00000E+000	1.50000E-001	1.03019E-003	5	..........a	-327.66
	1102	220.6	1.40116E-001	-3.26311E-008	0.00000E+000	1.40000E-001	1.00539E-003	5	..........a	-327.66
	1103	220.8	1.30073E-001	-3.19591E-008	0.00000E+000	1.30000E-001	1.00939E-003	5	..........a	-327.66
	1104	221	1.20066E-001	-3.13113E-008	0.00000E+000	1.20000E-001	1.00899E-003	5	..........a	-327.66
	1105	221.2	1.10118E-001	-3.06735E-008	0.00000E+000	1.10000E-001	1.01829E-003	5	..........a	-327.66
	1106	221.4	1.00126E-001	-3.01499E-008	0.00000E+000	1.00000E-001	9.94592E-004	5	..........a	-327.66
	1107	221.6	9.01075E-002	-2.96135E-008	0.00000E+000	9.00000E-002	1.01199E-003	5	..........a	-327.66
	1108	221.8	8.00729E-002	-2.93296E-008	0.00000E+000	8.00000E-002	9.98592E-004	5	..........a	-327.66
	1109	222	7.00617E-002	-2.92031E-008	0.00000E+000	7.00000E-002	9.97792E-004	5	..........a	-327.66
	1110	222.2	6.01205E-002	-2.92277E-008	0.00000E+000	6.00000E-002	9.88592E-004	5	..........a	-327.66
	1111	222.4	5.00670E-002	-2.93485E-008	0.00000E+000	5.00000E-002	1.01189E-003	5	..........a	-327.66
	1112	222.6	4.00236E-002	-2.95599E-008	0.00000E+000	4.00000E-002	9.89392E-004	5	..........a	-327.66
	1113	222.8	3.00845E-002	-2.98545E-008	0.00000E+000	3.00000E-002	1.03029E-003	5	..........a	-327.66
	1114	223	2.01525E-002	-3.02605E-008	0.00000E+000	2.00000E-002	9.86492E-004	5	..........a	-327.66
	1115	223.2	1.01107E-002	-3.08525E-008	0.00000E+000	1.00000E-002	1.00639E-003	5	..........a	-327.66
	1116	223.4	3.05917E-005	-3.15226E-008	0.00000E+000	7.45058E-009	1.01629E-003	5	..........a	-327.66
	1117	223.6	-9.89051E-003	-3.18018E-008	0.00000E+000	-1.00000E-002	1.00319E-003	5	..........a	-327.66
	1118	223.8	-1.99172E-002	-3.24387E-008	0.00000E+000	-2.00000E-002	9.80592E-004	5	..........a	-327.66
	1119	224	-2.99566E-002	-3.32583E-008	0.00000E+000	-3.00000E-002	9.97792E-004	5	..........a	-327.66
	1120	224.2	-3.99224E-002	-3.36581E-008	0.00000E+000	-4.00000E-002	9.96492E-004	5	..........a	-327.66