File: data/raw/batch_data/20240424_L_GM0016_HL03_E03_CV50K.DTA
EXPLAIN
TAG	CV
TITLE	LABEL	Cyclic Voltammetry	Test &Identifier
DATE	LABEL	4/24/2024	Date
TIME	LABEL	17:23:41	Time
NOTES	NOTES	1	&Notes...

PSTAT	PSTAT	REF600P-43058	Potentiostat
VINIT	POTEN	0.00000E+000	T	Initial &E (V)
VLIMIT1	POTEN	-6.00000E-001	F	Scan Limit &1 (V)
VLIMIT2	POTEN	8.00000E-001	F	Scan Limit &2 (V)
VFINAL	POTEN	0.00000E+000	T	Final &E (V)
SCANRATE	QUANT	4.99999E+004	&Scan Rate (mV/s)
STEPSIZE	QUANT	1.00000E+001	St&ep Size (mV)
CYCLES	IQUANT	10	C&ycles (#)
IMODE	SELECTOR	0	I/E Range &Mode
IRANGE	QUANT	1.00000E-005	&Max Current (mA)
AREA	QUANT	1.00000E+000	Electrode &Area (cm^2)
ELECTRODETYPE	SELECTOR	0	Electrode Type
STRIPPING	TOGGLE	F	Used for Stripping
POLARITY	TOGGLE	F	Signal Polarity
CONDIT	TWOPARAM	F	1.50000E+001	0.00000E+000	Conditionin&g	Time(s)	E(V)
DELAY	TWOPARAM	T	1.00000E+001	0.00000E+000	Init. De&lay	Time(s)	Stab.(mV/s)
EQDELAY	QUANT	1.00000E+001	Equil. &Time (s)
IRCOMP	SELECTOR	0	IRCom&p
PFCOR	QUANT	5.00000E+001	PF Corr. (ohm)
SAMPLINGMODE	SELECTOR	1	Sampling &Mode
OCVCURVE	TABLE	39
	Pt	T	Vf	Vm	Ach	Over	Temp
	#	s	V vs. Ref.	V	V	bits	deg C
	0	0.258333	-1.95880E-001	-1.95880E-001	2.28059E-004	..........a	-327.66
	1	0.516667	-1.95894E-001	-1.96637E-001	2.31126E-004	..........a	-327.66
	2	0.775	-1.95983E-001	-1.97373E-001	2.29792E-004	..........a	-327.66
	3	1.03333	-1.96237E-001	-1.98079E-001	2.32192E-004	..........a	-327.66
	4	1.29167	-1.96692E-001	-1.98758E-001	2.24459E-004	..........a	-327.66
	5	1.55	-1.97302E-001	-1.99414E-001	2.25859E-004	..........a	-327.66
	6	1.80833	-1.97982E-001	-2.00052E-001	2.34059E-004	..........a	-327.66
	7	2.06667	-1.98671E-001	-2.00669E-001	2.33726E-004	..........a	-327.66
	8	2.325	-1.99341E-001	-2.01262E-001	2.30192E-004	..........a	-327.66
	9	2.58333	-1.99985E-001	-2.01819E-001	2.20992E-004	..........a	-327.66
	10	2.84167	-2.00601E-001	-2.02303E-001	2.23592E-004	..........a	-327.66
	11	3.1	-2.01186E-001	-2.02759E-001	2.27059E-004	..........a	-327.66
	12	3.35833	-2.01732E-001	-2.03211E-001	2.30926E-004	..........a	-327.66
	13	3.61667	-2.02240E-001	-2.03659E-001	2.20459E-004	..........a	-327.66
	14	3.875	-2.02717E-001	-2.04099E-001	2.25926E-004	..........a	-327.66
	15	4.13333	-2.03175E-001	-2.04539E-001	2.26992E-004	..........a	-327.66
	16	4.39167	-2.03622E-001	-2.04968E-001	2.27859E-004	..........a	-327.66
	17	4.65	-2.04064E-001	-2.05397E-001	2.28726E-004	..........a	-327.66
	18	4.90833	-2.04500E-001	-2.05808E-001	2.33526E-004	..........a	-327.66
	19	5.16667	-2.04931E-001	-2.06220E-001	2.23059E-004	..........a	-327.66
	20	5.425	-2.05355E-001	-2.06622E-001	2.22059E-004	..........a	-327.66
	21	5.68333	-2.05772E-001	-2.07018E-001	2.30659E-004	..........a	-327.66
	22	5.94167	-2.06182E-001	-2.07405E-001	2.33792E-004	..........a	-327.66
	23	6.2	-2.06585E-001	-2.07784E-001	2.21459E-004	..........a	-327.66
	24	6.45833	-2.06981E-001	-2.08162E-001	2.24459E-004	..........a	-327.66
	25	6.71667	-2.07369E-001	-2.08525E-001	2.26926E-004	..........a	-327.66
	26	6.975	-2.07751E-001	-2.08887E-001	2.22659E-004	..........a	-327.66
	27	7.23333	-2.08125E-001	-2.09240E-001	2.35059E-004	..........a	-327.66
	28	7.49167	-2.08493E-001	-2.09588E-001	2.31326E-004	..........a	-327.66
	29	7.75	-2.08854E-001	-2.09925E-001	2.23859E-004	..........a	-327.66
	30	8.00833	-2.09208E-001	-2.10255E-001	2.30192E-004	..........a	-327.66
	31	8.26667	-2.09554E-001	-2.10574E-001	2.25926E-004	..........a	-327.66
	32	8.525	-2.09892E-001	-2.10878E-001	2.18392E-004	..........a	-327.66
	33	8.78333	-2.10221E-001	-2.11177E-001	2.24859E-004	..........a	-327.66
	34	9.04167	-2.10540E-001	-2.11467E-001	2.15792E-004	..........a	-327.66
	35	9.3	-2.10849E-001	-2.11762E-001	2.14926E-004	..........a	-327.66
	36	9.5583	-2.11150E-001	-2.12053E-001	2.17192E-004	..........a	-327.66
	37	9.8167	-2.11445E-001	-2.12337E-001	2.28192E-004	..........a	-327.66
	38	10.075	-2.11738E-001	-2.12624E-001	2.16792E-004	..........a	-327.66
EOC	QUANT	-0.2117376	Open Circuit (V)
PSTATMODEL	IQUANT	7	Pstat Model
PSTATSECTION	LABEL	REF600P-43058	Pstat Section
PSTATSERIALNO	LABEL	43058	Pstat Serial Number
CTRLMODE	IQUANT	1	Control Mode
ELECTROMETER	IQUANT	0	RE=0 or CS=1
IESTAB	IQUANT	2	I/E Stability
CASPEED	IQUANT	4	Control Amp Speed
CONVENTION	IQUANT	1	Current Convention
ICHRANGE	IQUANT	2	Ich Range
ICHRANGEMODE	TOGGLE	F	Ich Auto Range
ICHOFFSETENABLE	TOGGLE	F	Ich Offset Enable
ICHOFFSET	QUANT	0	Ich Offset (V)
ICHFILTER	IQUANT	1	Ich Filter
VCHRANGE	IQUANT	2	Vch Range
VCHRANGEMODE	TOGGLE	F	Vch Auto Range
VCHOFFSETENABLE	TOGGLE	F	Vch Offset Enable
VCHOFFSET	QUANT	0	Vch Offset (V)
VCHFILTER	IQUANT	1	Vch Filter
ACHRANGE	IQUANT	2	Ach Range
ACHOFFSETENABLE	TOGGLE	F	Ach Offset Enable
ACHOFFSET	QUANT	0	Ach Offset (V)
ACHFILTER	IQUANT	1	Ach Filter
IERANGELOWERLIMIT	IQUANT	1	I/E Range Lower Limit
IERANGEMODE	TOGGLE	T	I/E AutoRange
IERANGE	IQUANT	4	I/E Range
POSFEEDENABLE	TOGGLE	F	Positive Feedback IR Comp
POSFEEDRESISTANCE	QUANT	0	Positive Feedback Resistance (ohm)
ACHSELECT	IQUANT	4	Ach Select
SENSECABLEID	IQUANT	7	Sense Cable ID
PWRCABLEID	IQUANT	7	Power Cable ID
DCCALDATE	LABEL	3/22/2024	DC Calibration Date
ACCALDATE	LABEL	3/22/2024	AC Calibration Date
THERMOSELECT	IQUANT	1	Thermo Select
FRAMEWORKVERSION	LABEL	7.8.4	Framework Version
INSTRUMENTVERSION	LABEL	4.42	Instrument Version
CURVE1	TABLE
	Pt	T	Vf	Im	Vu	Sig	Ach	IERange	Over	Temp
	#	s	V vs. Ref.	A	V	V	V	#	bits	deg C
	0	0.0002	-2.11653E-001	2.25001E-007	0.00000E+000	-2.11750E-001	8.15923E-005	8	..........a	-327.66
	2	0.0006	-2.31653E-001	-1.29506E-006	0.00000E+000	-2.31750E-001	-3.18408E-004	8	..........a	-327.66
	4	0.001	-2.51553E-001	-2.28510E-006	0.00000E+000	-2.51750E-001	8.15923E-005	8	..........a	-327.66
	6	0.0014	-2.71553E-001	-2.95512E-006	0.00000E+000	-2.71750E-001	-2.18408E-004	8	..........a	-327.66
	8	0.0018	-2.91853E-001	-3.44514E-006	0.00000E+000	-2.91750E-001	8.15923E-005	8	..........a	-327.66
	10	0.0022	-3.11653E-001	-3.87516E-006	0.00000E+000	-3.11750E-001	8.15923E-005	8	..........a	-327.66
	12	0.0026	-3.31653E-001	-4.19517E-006	0.00000E+000	-3.31750E-001	8.15923E-005	8	..........a	-327.66
	14	0.003	-3.51653E-001	-4.57518E-006	0.00000E+000	-3.51750E-001	8.15923E-005	8	..........a	-327.66
	16	0.0034	-3.71653E-001	-4.80519E-006	0.00000E+000	-3.71750E-001	8.15923E-005	8	..........a	-327.66
	18	0.0038	-3.91753E-001	-5.07520E-006	0.00000E+000	-3.91750E-001	8.15923E-005	8	..........a	-327.66
	20	0.0042	-4.11753E-001	-5.31521E-006	0.00000E+000	-4.11750E-001	8.15923E-005	8	..........a	-327.66
	22	0.0046	-4.31653E-001	-5.53522E-006	0.00000E+000	-4.31750E-001	8.15923E-005	8	..........a	-327.66
	24	0.005	-4.51653E-001	-5.75523E-006	0.00000E+000	-4.51750E-001	8.15923E-005	8	..........a	-327.66
	26	0.0054	-4.71553E-001	-6.00524E-006	0.00000E+000	-4.71750E-001	8.15923E-005	8	..........a	-327.66
	28	0.0058	-4.91453E-001	-6.23525E-006	0.00000E+000	-4.91750E-001	8.15923E-005	8	..........a	-327.66
	30	0.0062	-5.11653E-001	-6.41525E-006	0.00000E+000	-5.11750E-001	8.15923E-005	8	..........a	-327.66
	32	0.0066	-5.31653E-001	-6.66526E-006	0.00000E+000	-5.31750E-001	8.15923E-005	8	..........a	-327.66
	34	0.007	-5.51653E-001	-6.87527E-006	0.00000E+000	-5.51750E-001	-3.18408E-004	8	..........a	-327.66
	36	0.0074	-5.71553E-001	-7.11528E-006	0.00000E+000	-5.71750E-001	8.15923E-005	8	..........a	-327.66
	38	0.0078	-5.91753E-001	-7.35529E-006	0.00000E+000	-5.91750E-001	-2.18408E-004	8	..........a	-327.66
	40	0.0082	-5.91653E-001	-5.83523E-006	0.00000E+000	-5.91750E-001	8.15923E-005	8	..........a	-327.66
	42	0.0086	-5.71553E-001	-3.43514E-006	0.00000E+000	-5.71750E-001	8.15923E-005	8	..........a	-327.66
	44	0.009	-5.51653E-001	-1.72507E-006	0.00000E+000	-5.51750E-001	8.15923E-005	8	..........a	-327.66
	46	0.0094	-5.31553E-001	-3.95023E-007	0.00000E+000	-5.31750E-001	8.15923E-005	8	..........a	-327.66
	48	0.0098	-5.11753E-001	6.75018E-007	0.00000E+000	-5.11750E-001	8.15923E-005	8	..........a	-327.66
	50	0.0102	-4.91653E-001	1.59505E-006	0.00000E+000	-4.91750E-001	8.15923E-005	8	..........a	-327.66
	52	0.0106	-4.72003E-001	2.25508E-006	0.00000E+000	-4.71750E-001	8.15923E-005	8	..........a	-327.66
	54	0.011	-4.51653E-001	2.84510E-006	0.00000E+000	-4.51750E-001	8.15923E-005	8	..........a	-327.66
	56	0.0114	-4.31553E-001	3.39512E-006	0.00000E+000	-4.31750E-001	8.15923E-005	8	..........a	-327.66
	58	0.0118	-4.11753E-001	3.83514E-006	0.00000E+000	-4.11750E-001	8.15923E-005	8	..........a	-327.66
	60	0.0122	-3.91703E-001	4.17515E-006	0.00000E+000	-3.91750E-001	8.15923E-005	8	..........a	-327.66
	62	0.0126	-3.71753E-001	4.49516E-006	0.00000E+000	-3.71750E-001	8.15923E-005	8	..........a	-327.66
	64	0.013	-3.51653E-001	4.76517E-006	0.00000E+000	-3.51750E-001	8.15923E-005	8	..........a	-327.66
	66	0.0134	-3.31553E-001	5.03519E-006	0.00000E+000	-3.31750E-001	8.15923E-005	8	..........a	-327.66
	68	0.0138	-3.11803E-001	5.17519E-006	0.00000E+000	-3.11750E-001	8.15923E-005	8	..........a	-327.66
	70	0.0142	-2.91553E-001	5.39520E-006	0.00000E+000	-2.91750E-001	8.15923E-005	8	..........a	-327.66
	72	0.0146	-2.71653E-001	5.54520E-006	0.00000E+000	-2.71750E-001	8.15923E-005	8	..........a	-327.66
	74	0.015	-2.51653E-001	5.69521E-006	0.00000E+000	-2.51750E-001	8.15923E-005	8	..........a	-327.66
	76	0.0154	-2.31753E-001	5.85522E-006	0.00000E+000	-2.31750E-001	8.15923E-005	8	..........a	-327.66
	78	0.0158	-2.11653E-001	5.98522E-006	0.00000E+000	-2.11750E-001	8.15923E-005	8	..........a	-327.66
	80	0.0162	-1.91753E-001	6.02522E-006	0.00000E+000	-1.91750E-001	8.15923E-005	8	..........a	-327.66
	82	0.0166	-1.71803E-001	6.15523E-006	0.00000E+000	-1.71750E-001	8.15923E-005	8	..........a	-327.66
	84	0.017	-1.51953E-001	6.31523E-006	0.00000E+000	-1.51750E-001	8.15923E-005	8	..........a	-327.66
	86	0.0174	-1.31753E-001	6.41524E-006	0.00000E+000	-1.31750E-001	8.15923E-005	8	..........a	-327.66
	88	0.0178	-1.11853E-001	6.50524E-006	0.00000E+000	-1.11750E-001	8.15923E-005	8	..........a	-327.66
	90	0.0182	-9.16529E-002	6.70525E-006	0.00000E+000	-9.17500E-002	8.15923E-005	8	..........a	-327.66
	92	0.0186	-7.17529E-002	6.74525E-006	0.00000E+000	-7.17500E-002	8.15923E-005	8	..........a	-327.66
	94	0.019	-5.16529E-002	6.87526E-006	0.00000E+000	-5.17500E-002	8.15923E-005	8	..........a	-327.66
	96	0.0194	-3.16529E-002	6.97526E-006	0.00000E+000	-3.17500E-002	8.15923E-005	8	..........a	-327.66
	98	0.0198	-1.17529E-002	7.16527E-006	0.00000E+000	-1.17500E-002	8.15923E-005	8	..........a	-327.66
	100	0.0202	8.24711E-003	7.30527E-006	0.00000E+000	8.25001E-003	8.15923E-005	8	..........a	-327.66
	102	0.0206	2.81471E-002	7.49528E-006	0.00000E+000	2.82500E-002	8.15923E-005	8	..........a	-327.66
	104	0.021	4.84471E-002	7.71529E-006	0.00000E+000	4.82500E-002	8.15923E-005	8	..........a	-327.66
	106	0.0214	6.81471E-002	7.95530E-006	0.00000E+000	6.82500E-002	8.15923E-005	8	..........a	-327.66
	108	0.0218	8.82471E-002	8.20531E-006	0.00000E+000	8.82500E-002	8.15923E-005	8	..........a	-327.66
	110	0.0222	1.08347E-001	8.44531E-006	0.00000E+000	1.08250E-001	8.15923E-005	8	..........a	-327.66
	112	0.0226	1.28347E-001	8.79533E-006	0.00000E+000	1.28250E-001	8.15923E-005	8	..........a	-327.66
	114	0.023	1.48247E-001	9.13534E-006	0.00000E+000	1.48250E-001	8.15923E-005	8	..........a	-327.66
	116	0.0234	1.68447E-001	9.61536E-006	0.00000E+000	1.68250E-001	8.15923E-005	8	..........a	-327.66
	118	0.0238	1.88347E-001	9.90537E-006	0.00000E+000	1.88250E-001	8.15923E-005	8	..........a	-327.66
	120	0.0242	2.08247E-001	1.02754E-005	0.00000E+000	2.08250E-001	8.15923E-005	8	..........a	-327.66
	122	0.0246	2.28347E-001	1.06054E-005	0.00000E+000	2.28250E-001	-3.18408E-004	8	..........a	-327.66
	124	0.025	2.48347E-001	1.09554E-005	0.00000E+000	2.48250E-001	8.15923E-005	8	..........a	-327.66
	126	0.0254	2.68447E-001	1.14054E-005	0.00000E+000	2.68250E-001	8.15923E-005	8	..........a	-327.66
	128	0.0258	2.88247E-001	1.18254E-005	0.00000E+000	2.88250E-001	8.15923E-005	8	..........a	-327.66
	130	0.0262	3.08247E-001	1.22455E-005	0.00000E+000	3.08250E-001	8.15923E-005	8	..........a	-327.66
	132	0.0266	3.28197E-001	1.26155E-005	0.00000E+000	3.28250E-001	8.15923E-005	8	..........a	-327.66
	134	0.027	3.48197E-001	1.29855E-005	0.00000E+000	3.48250E-001	-3.18408E-004	8	..........a	-327.66
	136	0.0274	3.68347E-001	1.33755E-005	0.00000E+000	3.68250E-001	8.15923E-005	8	..........a	-327.66
	138	0.0278	3.88347E-001	1.37455E-005	0.00000E+000	3.88250E-001	8.15923E-005	8	..........a	-327.66
	140	0.0282	4.08197E-001	1.41155E-005	0.00000E+000	4.08250E-001	8.15923E-005	8	..........a	-327.66
	142	0.0286	4.28197E-001	1.44655E-005	0.00000E+000	4.28250E-001	8.15923E-005	8	..........a	-327.66
	144	0.029	4.48147E-001	1.48956E-005	0.00000E+000	4.48250E-001	8.15923E-005	8	..........a	-327.66
	146	0.0294	4.68247E-001	1.52756E-005	0.00000E+000	4.68250E-001	8.15923E-005	8	..........a	-327.66
	148	0.0298	4.88247E-001	1.56056E-005	0.00000E+000	4.88250E-001	8.15923E-005	8	..........a	-327.66
	150	0.0302	5.08147E-001	1.59956E-005	0.00000E+000	5.08250E-001	8.15923E-005	8	..........a	-327.66
	152	0.0306	5.28297E-001	1.62656E-005	0.00000E+000	5.28250E-001	8.15923E-005	8	..........a	-327.66
	154	0.031	5.48347E-001	1.64856E-005	0.00000E+000	5.48250E-001	8.15923E-005	8	..........a	-327.66
	156	0.0314	5.68147E-001	1.67256E-005	0.00000E+000	5.68250E-001	8.15923E-005	8	..........a	-327.66
	158	0.0318	5.88247E-001	1.69556E-005	0.00000E+000	5.88250E-001	8.15923E-005	8	..........a	-327.66
	160	0.0322	6.08347E-001	1.71356E-005	0.00000E+000	6.08250E-001	8.15923E-005	8	..........a	-327.66
	162	0.0326	6.28247E-001	1.73457E-005	0.00000E+000	6.28250E-001	8.15923E-005	8	..........a	-327.66
	164	0.033	6.48347E-001	1.75957E-005	0.00000E+000	6.48250E-001	8.15923E-005	8	..........a	-327.66
	166	0.0334	6.68147E-001	1.77757E-005	0.00000E+000	6.68250E-001	8.15923E-005	8	..........a	-327.66
	168	0.0338	6.88097E-001	1.79457E-005	0.00000E+000	6.88250E-001	8.15923E-005	8	..........a	-327.66
	170	0.0342	7.08247E-001	1.81057E-005	0.00000E+000	7.08250E-001	-3.18408E-004	8	..........a	-327.66
	172	0.0346	7.28147E-001	1.81857E-005	0.00000E+000	7.28250E-001	8.15923E-005	8	..........a	-327.66
	174	0.035	7.48247E-001	1.82957E-005	0.00000E+000	7.48250E-001	8.15923E-005	8	..........a	-327.66
	176	0.0354	7.68147E-001	1.83557E-005	0.00000E+000	7.68250E-001	8.15923E-005	8	..........a	-327.66
	178	0.0358	7.88247E-001	1.83857E-005	0.00000E+000	7.88250E-001	8.15923E-005	8	..........a	-327.66
	179	0.036	7.98247E-001	1.84057E-005	0.00000E+000	7.98250E-001	8.15923E-005	8	..........a	-327.66
CURVE2	TABLE
	Pt	T	Vf	Im	Vu	Sig	Ach	IERange	Over	Temp
	#	s	V vs. Ref.	A	V	V	V	#	bits	deg C
	180	0.0362	7.90147E-001	1.65056E-005	0.00000E+000	7.90000E-001	8.15923E-005	8	..........a	-327.66
	183	0.0368	7.59947E-001	1.19054E-005	0.00000E+000	7.60000E-001	8.15923E-005	8	..........a	-327.66
	186	0.0374	7.29847E-001	8.49532E-006	0.00000E+000	7.30000E-001	8.15923E-005	8	..........a	-327.66
	189	0.038	7.00047E-001	5.85522E-006	0.00000E+000	7.00000E-001	8.15923E-005	8	..........a	-327.66
	192	0.0386	6.69847E-001	3.64513E-006	0.00000E+000	6.70000E-001	-3.18408E-004	8	..........a	-327.66
	195	0.0392	6.39997E-001	1.77506E-006	0.00000E+000	6.40000E-001	8.15923E-005	8	..........a	-327.66
	198	0.0398	6.10047E-001	2.65002E-007	0.00000E+000	6.10000E-001	8.15923E-005	8	..........a	-327.66
	201	0.0404	5.80147E-001	-1.05505E-006	0.00000E+000	5.80000E-001	8.15923E-005	8	..........a	-327.66
	204	0.041	5.50047E-001	-2.26509E-006	0.00000E+000	5.50000E-001	8.15923E-005	8	..........a	-327.66
	207	0.0416	5.20047E-001	-3.28513E-006	0.00000E+000	5.20000E-001	8.15923E-005	8	..........a	-327.66
	210	0.0422	4.89947E-001	-4.21517E-006	0.00000E+000	4.90000E-001	8.15923E-005	8	..........a	-327.66
	213	0.0428	4.59947E-001	-5.02520E-006	0.00000E+000	4.60000E-001	8.15923E-005	8	..........a	-327.66
	216	0.0434	4.29947E-001	-5.85523E-006	0.00000E+000	4.30000E-001	8.15923E-005	8	..........a	-327.66
	219	0.044	3.99947E-001	-6.59526E-006	0.00000E+000	4.00000E-001	8.15923E-005	8	..........a	-327.66
	222	0.0446	3.69947E-001	-7.34529E-006	0.00000E+000	3.70000E-001	8.15923E-005	8	..........a	-327.66
	225	0.0452	3.40047E-001	-8.07532E-006	0.00000E+000	3.40000E-001	8.15923E-005	8	..........a	-327.66
	228	0.0458	3.10047E-001	-8.80534E-006	0.00000E+000	3.10000E-001	8.15923E-005	8	..........a	-327.66
	231	0.0464	2.79847E-001	-9.58537E-006	0.00000E+000	2.80000E-001	-3.18408E-004	8	..........a	-327.66
	234	0.047	2.50047E-001	-1.02954E-005	0.00000E+000	2.50000E-001	8.15923E-005	8	..........a	-327.66
	237	0.0476	2.20147E-001	-1.09854E-005	0.00000E+000	2.20000E-001	8.15923E-005	8	..........a	-327.66
	240	0.0482	1.90047E-001	-1.15955E-005	0.00000E+000	1.90000E-001	8.15923E-005	8	..........a	-327.66
	243	0.0488	1.60047E-001	-1.21055E-005	0.00000E+000	1.60000E-001	8.15923E-005	8	..........a	-327.66
	246	0.0494	1.29947E-001	-1.25655E-005	0.00000E+000	1.30000E-001	8.15923E-005	8	..........a	-327.66
	249	0.05	1.00147E-001	-1.29555E-005	0.00000E+000	1.00000E-001	8.15923E-005	8	..........a	-327.66
	252	0.0506	7.01471E-002	-1.32855E-005	0.00000E+000	7.00000E-002	8.15923E-005	8	..........a	-327.66
	255	0.0512	4.00471E-002	-1.35255E-005	0.00000E+000	4.00000E-002	8.15923E-005	8	..........a	-327.66
	258	0.0518	1.00471E-002	-1.37455E-005	0.00000E+000	1.00000E-002	8.15923E-005	8	..........a	-327.66
	261	0.0524	-1.99529E-002	-1.38755E-005	0.00000E+000	-2.00000E-002	8.15923E-005	8	..........a	-327.66
[...]
	2600	0.5202	-1.90353E-001	5.97522E-006	0.00000E+000	-1.90000E-001	8.15923E-005	8	..........a	-327.66
	2603	0.5208	-1.60053E-001	6.29523E-006	0.00000E+000	-1.60000E-001	8.15923E-005	8	..........a	-327.66
	2606	0.5214	-1.29953E-001	6.70525E-006	0.00000E+000	-1.30000E-001	8.15923E-005	8	..........a	-327.66
	2609	0.522	-9.99529E-002	6.90526E-006	0.00000E+000	-1.00000E-001	8.15923E-005	8	..........a	-327.66
	2612	0.5226	-7.00529E-002	7.16527E-006	0.00000E+000	-7.00000E-002	8.15923E-005	8	..........a	-327.66
	2615	0.5232	-3.99529E-002	7.47528E-006	0.00000E+000	-4.00000E-002	8.15923E-005	8	..........a	-327.66
	2618	0.5238	-1.00529E-002	7.77529E-006	0.00000E+000	-1.00000E-002	8.15923E-005	8	..........a	-327.66
	2621	0.5244	2.01471E-002	8.07530E-006	0.00000E+000	2.00000E-002	8.15923E-005	8	..........a	-327.66
	2624	0.525	5.00471E-002	8.41531E-006	0.00000E+000	5.00000E-002	8.15923E-005	8	..........a	-327.66
	2627	0.5256	7.99971E-002	8.78533E-006	0.00000E+000	8.00000E-002	8.15923E-005	8	..........a	-327.66
	2630	0.5262	1.10047E-001	9.20534E-006	0.00000E+000	1.10000E-001	8.15923E-005	8	..........a	-327.66
	2633	0.5268	1.39947E-001	1.06754E-005	0.00000E+000	1.40000E-001	8.15923E-005	8	..........a	-327.66
	2636	0.5274	1.69947E-001	1.07354E-005	0.00000E+000	1.70000E-001	8.15923E-005	8	..........a	-327.66
	2639	0.528	1.99847E-001	1.06654E-005	0.00000E+000	2.00000E-001	8.15923E-005	8	..........a	-327.66
	2642	0.5286	2.29947E-001	1.10854E-005	0.00000E+000	2.30000E-001	8.15923E-005	8	..........a	-327.66
	2645	0.5292	2.60247E-001	1.16254E-005	0.00000E+000	2.60000E-001	8.15923E-005	8	..........a	-327.66
	2648	0.5298	2.89847E-001	1.20655E-005	0.00000E+000	2.90000E-001	8.15923E-005	8	..........a	-327.66
	2651	0.5304	3.20047E-001	1.25255E-005	0.00000E+000	3.20000E-001	8.15923E-005	8	..........a	-327.66
	2654	0.531	3.49897E-001	1.30355E-005	0.00000E+000	3.50000E-001	8.15923E-005	8	..........a	-327.66
	2657	0.5316	3.79897E-001	1.34755E-005	0.00000E+000	3.80000E-001	8.15923E-005	8	..........a	-327.66
	2660	0.5322	4.09847E-001	1.39555E-005	0.00000E+000	4.10000E-001	8.15923E-005	8	..........a	-327.66
	2663	0.5328	4.39947E-001	1.44155E-005	0.00000E+000	4.40000E-001	8.15923E-005	8	..........a	-327.66
	2666	0.5334	4.70047E-001	1.49056E-005	0.00000E+000	4.70000E-001	8.15923E-005	8	..........a	-327.66
	2669	0.534	4.99847E-001	1.52756E-005	0.00000E+000	5.00000E-001	8.15923E-005	8	..........a	-327.66
	2672	0.5346	5.30047E-001	1.55956E-005	0.00000E+000	5.30000E-001	8.15923E-005	8	..........a	-327.66
	2675	0.5352	5.60047E-001	1.59156E-005	0.00000E+000	5.60000E-001	8.15923E-005	8	..........a	-327.66
	2678	0.5358	5.89947E-001	1.62056E-005	0.00000E+000	5.90000E-001	8.15923E-005	8	..........a	-327.66
	2681	0.5364	6.19947E-001	1.64656E-005	0.00000E+000	6.20000E-001	8.15923E-005	8	..........a	-327.66
	2684	0.537	6.50047E-001	1.66756E-005	0.00000E+000	6.50000E-001	8.15923E-005	8	..........a	-327.66
	2687	0.5376	6.79847E-001	1.68756E-005	0.00000E+000	6.80000E-001	8.15923E-005	8	..........a	-327.66
	2690	0.5382	7.09947E-001	1.69056E-005	0.00000E+000	7.10000E-001	-4.18408E-004	8	..........a	-327.66
	2693	0.5388	7.39847E-001	1.69856E-005	0.00000E+000	7.40000E-001	8.15923E-005	8	..........a	-327.66
	2696	0.5394	7.69947E-001	1.69656E-005	0.00000E+000	7.70000E-001	8.15923E-005	8	..........a	-327.66
	2699	0.54	7.99847E-001	1.69556E-005	0.00000E+000	8.00000E-001	8.15923E-005	8	..........a	-327.66
CURVE11	TABLE
	Pt	T	Vf	Im	Vu	Sig	Ach	IERange	Over	Temp
	#	s	V vs. Ref.	A	V	V	V	#	bits	deg C
	2700	0.5402	7.89947E-001	1.48056E-005	0.00000E+000	7.90000E-001	8.15923E-005	8	..........a	-327.66
	2702	0.5406	7.70047E-001	1.16054E-005	0.00000E+000	7.70000E-001	8.15923E-005	8	..........a	-327.66
	2704	0.541	7.50047E-001	9.16534E-006	0.00000E+000	7.50000E-001	8.15923E-005	8	..........a	-327.66
	2706	0.5414	7.29947E-001	7.07526E-006	0.00000E+000	7.30000E-001	8.15923E-005	8	..........a	-327.66
	2708	0.5418	7.09847E-001	5.28519E-006	0.00000E+000	7.10000E-001	-2.18408E-004	8	..........a	-327.66
	2710	0.5422	6.89847E-001	3.76514E-006	0.00000E+000	6.90000E-001	8.15923E-005	8	..........a	-327.66
	2712	0.5426	6.69847E-001	2.46509E-006	0.00000E+000	6.70000E-001	8.15923E-005	8	..........a	-327.66
	2714	0.543	6.50047E-001	1.27504E-006	0.00000E+000	6.50000E-001	8.15923E-005	8	..........a	-327.66
	2716	0.5434	6.29947E-001	2.15000E-007	0.00000E+000	6.30000E-001	8.15923E-005	8	..........a	-327.66
	2718	0.5438	6.09847E-001	-6.75034E-007	0.00000E+000	6.10000E-001	8.15923E-005	8	..........a	-327.66
	2720	0.5442	5.89947E-001	-1.51507E-006	0.00000E+000	5.90000E-001	8.15923E-005	8	..........a	-327.66
	2722	0.5446	5.69947E-001	-2.30510E-006	0.00000E+000	5.70000E-001	8.15923E-005	8	..........a	-327.66
	2724	0.545	5.49947E-001	-2.96512E-006	0.00000E+000	5.50000E-001	8.15923E-005	8	..........a	-327.66
	2726	0.5454	5.29947E-001	-3.63515E-006	0.00000E+000	5.30000E-001	8.15923E-005	8	..........a	-327.66
	2728	0.5458	5.09947E-001	-4.23517E-006	0.00000E+000	5.10000E-001	8.15923E-005	8	..........a	-327.66
	2730	0.5462	4.90047E-001	-4.79519E-006	0.00000E+000	4.90000E-001	8.15923E-005	8	..........a	-327.66
	2732	0.5466	4.70047E-001	-5.32521E-006	0.00000E+000	4.70000E-001	8.15923E-005	8	..........a	-327.66
	2734	0.547	4.49947E-001	-5.82523E-006	0.00000E+000	4.50000E-001	8.15923E-005	8	..........a	-327.66
	2736	0.5474	4.30047E-001	-6.31525E-006	0.00000E+000	4.30000E-001	8.15923E-005	8	..........a	-327.66
	2738	0.5478	4.10047E-001	-6.83527E-006	0.00000E+000	4.10000E-001	8.15923E-005	8	..........a	-327.66
	2740	0.5482	3.89947E-001	-7.24528E-006	0.00000E+000	3.90000E-001	8.15923E-005	8	..........a	-327.66
	2742	0.5486	3.70047E-001	-7.73530E-006	0.00000E+000	3.70000E-001	8.15923E-005	8	..........a	-327.66
	2744	0.549	3.50047E-001	-8.20532E-006	0.00000E+000	3.50000E-001	8.15923E-005	8	..........a	-327.66
	2746	0.5494	3.30047E-001	-8.64534E-006	0.00000E+000	3.30000E-001	8.15923E-005	8	..........a	-327.66
	2748	0.5498	3.10047E-001	-9.15536E-006	0.00000E+000	3.10000E-001	8.15923E-005	8	..........a	-327.66
	2750	0.5502	2.89947E-001	-9.59537E-006	0.00000E+000	2.90000E-001	8.15923E-005	8	..........a	-327.66
	2752	0.5506	2.69947E-001	-1.00254E-005	0.00000E+000	2.70000E-001	8.15923E-005	8	..........a	-327.66
	2754	0.551	2.49947E-001	-1.05154E-005	0.00000E+000	2.50000E-001	8.15923E-005	8	..........a	-327.66
	2756	0.5514	2.29947E-001	-1.09554E-005	0.00000E+000	2.30000E-001	8.15923E-005	8	..........a	-327.66
	2758	0.5518	2.09947E-001	-1.13854E-005	0.00000E+000	2.10000E-001	-2.18408E-004	8	..........a	-327.66
	2760	0.5522	1.90097E-001	-1.17455E-005	0.00000E+000	1.90000E-001	8.15923E-005	8	..........a	-327.66
	2762	0.5526	1.69947E-001	-1.21355E-005	0.00000E+000	1.70000E-001	-1.18408E-004	8	..........a	-327.66
	2764	0.553	1.49997E-001	-1.24255E-005	0.00000E+000	1.50000E-001	8.15923E-005	8	..........a	-327.66
	2766	0.5534	1.29847E-001	-1.27155E-005	0.00000E+000	1.30000E-001	8.15923E-005	8	..........a	-327.66
	2768	0.5538	1.10147E-001	-1.29955E-005	0.00000E+000	1.10000E-001	8.15923E-005	8	..........a	-327.66
	2770	0.5542	9.00471E-002	-1.32355E-005	0.00000E+000	9.00000E-002	8.15923E-005	8	..........a	-327.66
	2772	0.5546	6.99471E-002	-1.34755E-005	0.00000E+000	7.00000E-002	8.15923E-005	8	..........a	-327.66
	2774	0.555	5.01471E-002	-1.36755E-005	0.00000E+000	5.00000E-002	8.15923E-005	8	..........a	-327.66
	2776	0.5554	3.01471E-002	-1.38055E-005	0.00000E+000	3.00000E-002	8.15923E-005	8	..........a	-327.66
	2778	0.5558	1.01471E-002	-1.40055E-005	0.00000E+000	1.00000E-002	8.15923E-005	8	..........a	-327.66
	2780	0.5562	-9.95289E-003	-1.42556E-005	0.00000E+000	-1.00000E-002	8.15923E-005	8	..........a	-327.66
	2782	0.5566	-2.99529E-002	-1.45156E-005	0.00000E+000	-3.00000E-002	8.15923E-005	8	..........a	-327.66
	2784	0.557	-4.99529E-002	-1.46356E-005	0.00000E+000	-5.00000E-002	8.15923E-005	8	..........a	-327.66
	2786	0.5574	-6.99529E-002	-1.46956E-005	0.00000E+000	-7.00000E-002	8.15923E-005	8	..........a	-327.66
	2788	0.5578	-9.00529E-002	-1.45156E-005	0.00000E+000	-9.00000E-002	8.15923E-005	8	..........a	-327.66
	2790	0.5582	-1.10053E-001	-1.40355E-005	0.00000E+000	-1.10000E-001	8.15923E-005	8	..........a	-327.66
	2792	0.5586	-1.30053E-001	-1.38355E-005	0.00000E+000	-1.30000E-001	8.15923E-005	8	..........a	-327.66
	2794	0.559	-1.49953E-001	-1.37155E-005	0.00000E+000	-1.50000E-001	8.15923E-005	8	..........a	-327.66
	2796	0.5594	-1.70053E-001	-1.35555E-005	0.00000E+000	-1.70000E-001	8.15923E-005	8	..........a	-327.66
	2798	0.5598	-1.89953E-001	-1.33755E-005	0.00000E+000	-1.90000E-001	8.15923E-005	8	..........a	-327.66
	2800	0.5602	-2.09953E-001	-1.31755E-005	0.00000E+000	-2.10000E-001	8.15923E-005	8	..........a	-327.66