File: data/raw/batch_data/20240321_S_GM0016_HL03_E05_CV50.DTA
EXPLAIN
TAG	CV
TITLE	LABEL	Cyclic Voltammetry	Test &Identifier
DATE	LABEL	3/21/2024	Date
TIME	LABEL	17:25:43	Time
NOTES	NOTES	1	&Notes...

PSTAT	PSTAT	REF600P-43058	Potentiostat
VINIT	POTEN	0.00000E+000	T	Initial &E (V)
VLIMIT1	POTEN	-6.00000E-001	F	Scan Limit &1 (V)
VLIMIT2	POTEN	8.00000E-001	F	Scan Limit &2 (V)
VFINAL	POTEN	0.00000E+000	T	Final &E (V)
SCANRATE	QUANT	4.99999E+001	&Scan Rate (mV/s)
STEPSIZE	QUANT	1.00000E+001	St&ep Size (mV)
CYCLES	IQUANT	4	C&ycles (#)
IMODE	SELECTOR	1	I/E Range &Mode
IRANGE	QUANT	1.00000E-005	&Max Current (mA)
AREA	QUANT	1.00000E+000	Electrode &Area (cm^2)
ELECTRODETYPE	SELECTOR	0	Electrode Type
STRIPPING	TOGGLE	F	Used for Stripping
POLARITY	TOGGLE	F	Signal Polarity
CONDIT	TWOPARAM	F	1.50000E+001	0.00000E+000	Conditionin&g	Time(s)	E(V)
DELAY	TWOPARAM	T	1.00000E+001	0.00000E+000	Init. De&lay	Time(s)	Stab.(mV/s)
EQDELAY	QUANT	1.00000E+001	Equil. &Time (s)
IRCOMP	SELECTOR	0	IRCom&p
PFCOR	QUANT	5.00000E+001	PF Corr. (ohm)
SAMPLINGMODE	SELECTOR	1	Sampling &Mode
OCVCURVE	TABLE	39
	Pt	T	Vf	Vm	Ach	Over	Temp
	#	s	V vs. Ref.	V	V	bits	deg C
	0	0.258333	2.20727E-001	2.20727E-001	2.30422E-004	..........a	-327.66
	1	0.516667	2.20730E-001	2.20896E-001	2.25622E-004	..........a	-327.66
	2	0.775	2.20753E-001	2.21201E-001	2.25422E-004	..........a	-327.66
	3	1.03333	2.20827E-001	2.21560E-001	2.31289E-004	..........a	-327.66
	4	1.29167	2.20985E-001	2.21988E-001	2.36422E-004	..........a	-327.66
	5	1.55	2.21238E-001	2.22445E-001	2.37156E-004	..........a	-327.66
	6	1.80833	2.21575E-001	2.22915E-001	2.29622E-004	..........a	-327.66
	7	2.06667	2.21975E-001	2.23399E-001	2.23489E-004	..........a	-327.66
	8	2.325	2.22417E-001	2.23900E-001	2.27356E-004	..........a	-327.66
	9	2.58333	2.22885E-001	2.24403E-001	2.27689E-004	..........a	-327.66
	10	2.84167	2.23369E-001	2.24903E-001	2.28289E-004	..........a	-327.66
	11	3.1	2.23863E-001	2.25403E-001	2.24622E-004	..........a	-327.66
	12	3.35833	2.24362E-001	2.25911E-001	2.24689E-004	..........a	-327.66
	13	3.61667	2.24864E-001	2.26421E-001	2.28622E-004	..........a	-327.66
	14	3.875	2.25368E-001	2.26927E-001	2.39289E-004	..........a	-327.66
	15	4.13333	2.25873E-001	2.27433E-001	2.37756E-004	..........a	-327.66
	16	4.39167	2.26380E-001	2.27939E-001	2.36956E-004	..........a	-327.66
	17	4.65	2.26887E-001	2.28448E-001	2.37156E-004	..........a	-327.66
	18	4.90833	2.27394E-001	2.28952E-001	2.28422E-004	..........a	-327.66
	19	5.16667	2.27901E-001	2.29460E-001	2.39289E-004	..........a	-327.66
	20	5.425	2.28407E-001	2.29963E-001	2.43422E-004	..........a	-327.66
	21	5.68333	2.28913E-001	2.30462E-001	2.32822E-004	..........a	-327.66
	22	5.94167	2.29418E-001	2.30967E-001	2.38222E-004	..........a	-327.66
	23	6.2	2.29922E-001	2.31469E-001	2.33689E-004	..........a	-327.66
	24	6.45833	2.30425E-001	2.31966E-001	2.44222E-004	..........a	-327.66
	25	6.71667	2.30927E-001	2.32457E-001	2.36356E-004	..........a	-327.66
	26	6.975	2.31427E-001	2.32950E-001	2.33956E-004	..........a	-327.66
	27	7.23333	2.31924E-001	2.33450E-001	2.28756E-004	..........a	-327.66
	28	7.49167	2.32420E-001	2.33950E-001	2.30822E-004	..........a	-327.66
	29	7.75	2.32915E-001	2.34448E-001	2.35356E-004	..........a	-327.66
	30	8.00833	2.33412E-001	2.34926E-001	2.35756E-004	..........a	-327.66
	31	8.26667	2.33908E-001	2.35421E-001	2.35022E-004	..........a	-327.66
	32	8.525	2.34402E-001	2.35916E-001	2.29222E-004	..........a	-327.66
	33	8.78333	2.34893E-001	2.36392E-001	2.27822E-004	..........a	-327.66
	34	9.04167	2.35383E-001	2.36875E-001	2.27956E-004	..........a	-327.66
	35	9.3	2.35870E-001	2.37358E-001	2.27822E-004	..........a	-327.66
	36	9.5583	2.36355E-001	2.37851E-001	2.32422E-004	..........a	-327.66
	37	9.8167	2.36839E-001	2.38329E-001	2.23556E-004	..........a	-327.66
	38	10.075	2.37324E-001	2.38807E-001	2.25756E-004	..........a	-327.66
EOC	QUANT	0.2373237	Open Circuit (V)
PSTATMODEL	IQUANT	7	Pstat Model
PSTATSECTION	LABEL	REF600P-43058	Pstat Section
PSTATSERIALNO	LABEL	43058	Pstat Serial Number
CTRLMODE	IQUANT	1	Control Mode
ELECTROMETER	IQUANT	0	RE=0 or CS=1
IESTAB	IQUANT	2	I/E Stability
CASPEED	IQUANT	4	Control Amp Speed
CONVENTION	IQUANT	1	Current Convention
ICHRANGE	IQUANT	2	Ich Range
ICHRANGEMODE	TOGGLE	F	Ich Auto Range
ICHOFFSETENABLE	TOGGLE	F	Ich Offset Enable
ICHOFFSET	QUANT	0	Ich Offset (V)
ICHFILTER	IQUANT	2	Ich Filter
VCHRANGE	IQUANT	2	Vch Range
VCHRANGEMODE	TOGGLE	F	Vch Auto Range
VCHOFFSETENABLE	TOGGLE	F	Vch Offset Enable
VCHOFFSET	QUANT	0	Vch Offset (V)
VCHFILTER	IQUANT	2	Vch Filter
ACHRANGE	IQUANT	2	Ach Range
ACHOFFSETENABLE	TOGGLE	F	Ach Offset Enable
ACHOFFSET	QUANT	0	Ach Offset (V)
ACHFILTER	IQUANT	1	Ach Filter
IERANGELOWERLIMIT	IQUANT	1	I/E Range Lower Limit
IERANGEMODE	TOGGLE	F	I/E AutoRange
IERANGE	IQUANT	4	I/E Range
POSFEEDENABLE	TOGGLE	F	Positive Feedback IR Comp
POSFEEDRESISTANCE	QUANT	0	Positive Feedback Resistance (ohm)
ACHSELECT	IQUANT	4	Ach Select
SENSECABLEID	IQUANT	7	Sense Cable ID
PWRCABLEID	IQUANT	7	Power Cable ID
DCCALDATE	LABEL	12/18/2023	DC Calibration Date
ACCALDATE	LABEL	12/18/2023	AC Calibration Date
THERMOSELECT	IQUANT	1	Thermo Select
FRAMEWORKVERSION	LABEL	7.8.4	Framework Version
INSTRUMENTVERSION	LABEL	4.42	Instrument Version
CURVE1	TABLE
	Pt	T	Vf	Im	Vu	Sig	Ach	IERange	Over	Temp
	#	s	V vs. Ref.	A	V	V	V	#	bits	deg C
	0	0.2	2.37327E-001	1.54494E-011	0.00000E+000	2.37300E-001	9.70422E-004	4	..........a	-327.66
	3	0.8	2.07277E-001	-1.52298E-011	0.00000E+000	2.07300E-001	9.79122E-004	4	..........a	-327.66
	6	1.4	1.77297E-001	-2.96483E-011	0.00000E+000	1.77300E-001	9.79522E-004	4	..........a	-327.66
	9	2	1.47372E-001	-3.95617E-011	0.00000E+000	1.47300E-001	9.76022E-004	4	..........a	-327.66
	12	2.6	1.17380E-001	-4.89721E-011	0.00000E+000	1.17300E-001	9.65822E-004	4	..........a	-327.66
	15	3.2	8.73641E-002	-5.80664E-011	0.00000E+000	8.73000E-002	9.57222E-004	4	..........a	-327.66
	18	3.8	5.73127E-002	-6.56397E-011	0.00000E+000	5.73000E-002	9.79522E-004	4	..........a	-327.66
	21	4.4	2.73461E-002	-7.44281E-011	0.00000E+000	2.73000E-002	9.78922E-004	4	..........a	-327.66
	24	5	-2.61811E-003	-8.37894E-011	0.00000E+000	-2.69999E-003	9.73222E-004	4	..........a	-327.66
	27	5.6	-3.27308E-002	-9.38798E-011	0.00000E+000	-3.27000E-002	9.89022E-004	4	..........a	-327.66
	30	6.2	-6.25540E-002	-1.03197E-010	0.00000E+000	-6.27000E-002	9.74422E-004	4	..........a	-327.66
	33	6.8	-9.26589E-002	-1.15407E-010	0.00000E+000	-9.27000E-002	9.61622E-004	4	..........a	-327.66
	36	7.4	-1.22644E-001	-1.27736E-010	0.00000E+000	-1.22700E-001	9.56422E-004	4	..........a	-327.66
	39	8	-1.52696E-001	-1.43495E-010	0.00000E+000	-1.52700E-001	9.66022E-004	4	..........a	-327.66
	42	8.6	-1.82713E-001	-1.61243E-010	0.00000E+000	-1.82700E-001	9.83022E-004	4	..........a	-327.66
	45	9.2	-2.12637E-001	-1.82371E-010	0.00000E+000	-2.12700E-001	9.62022E-004	4	..........a	-327.66
	48	9.8	-2.42656E-001	-2.08157E-010	0.00000E+000	-2.42700E-001	9.74422E-004	4	..........a	-327.66
	51	10.4	-2.72607E-001	-2.39177E-010	0.00000E+000	-2.72700E-001	9.62122E-004	4	..........a	-327.66
	54	11	-3.02644E-001	-2.77894E-010	0.00000E+000	-3.02700E-001	9.77222E-004	4	..........a	-327.66
	57	11.6	-3.32663E-001	-3.21562E-010	0.00000E+000	-3.32700E-001	9.74022E-004	4	..........a	-327.66
	60	12.2	-3.62555E-001	-3.56231E-010	0.00000E+000	-3.62700E-001	9.66922E-004	4	..........a	-327.66
	63	12.8	-3.92659E-001	-4.19589E-010	0.00000E+000	-3.92700E-001	9.61222E-004	4	..........a	-327.66
	66	13.4	-4.22549E-001	-4.71365E-010	0.00000E+000	-4.22700E-001	9.71222E-004	4	..........a	-327.66
	69	14	-4.52596E-001	-5.30075E-010	0.00000E+000	-4.52700E-001	9.74922E-004	4	..........a	-327.66
	72	14.6	-4.82557E-001	-5.93681E-010	0.00000E+000	-4.82700E-001	9.62522E-004	4	..........a	-327.66
	75	15.2	-5.12613E-001	-6.65273E-010	0.00000E+000	-5.12700E-001	9.79922E-004	4	..........a	-327.66
	78	15.8	-5.42650E-001	-7.46363E-010	0.00000E+000	-5.42700E-001	9.68122E-004	4	..........a	-327.66
	81	16.4	-5.72591E-001	-8.42242E-010	0.00000E+000	-5.72700E-001	9.84822E-004	4	..........a	-327.66
	84	17	-6.02583E-001	-9.61372E-010	0.00000E+000	-6.02700E-001	9.66822E-004	4	..........a	-327.66
	87	17.6	-5.72612E-001	-6.48706E-010	0.00000E+000	-5.72700E-001	9.60622E-004	4	..........a	-327.66
	90	18.2	-5.42548E-001	-4.73692E-010	0.00000E+000	-5.42700E-001	9.58222E-004	4	..........a	-327.66
	93	18.8	-5.12595E-001	-3.42104E-010	0.00000E+000	-5.12700E-001	9.75922E-004	4	..........a	-327.66
	96	19.4	-4.82551E-001	-2.41740E-010	0.00000E+000	-4.82700E-001	9.65622E-004	4	..........a	-327.66
	99	20	-4.52613E-001	-1.61361E-010	0.00000E+000	-4.52700E-001	9.66022E-004	4	..........a	-327.66
	102	20.6	-4.22597E-001	-9.56449E-011	0.00000E+000	-4.22700E-001	9.69122E-004	4	..........a	-327.66
	105	21.2	-3.92643E-001	-4.31209E-011	0.00000E+000	-3.92700E-001	9.78722E-004	4	..........a	-327.66
	108	21.8	-3.62547E-001	4.09815E-013	0.00000E+000	-3.62700E-001	9.60822E-004	4	..........a	-327.66
	111	22.4	-3.32637E-001	3.71532E-011	0.00000E+000	-3.32700E-001	9.68322E-004	4	..........a	-327.66
	114	23	-3.02657E-001	6.64754E-011	0.00000E+000	-3.02700E-001	9.76322E-004	4	..........a	-327.66
	117	23.6	-2.72602E-001	8.98052E-011	0.00000E+000	-2.72700E-001	9.80822E-004	4	..........a	-327.66
	120	24.2	-2.42522E-001	1.07821E-010	0.00000E+000	-2.42700E-001	9.84022E-004	4	..........a	-327.66
	123	24.8	-2.12654E-001	1.24496E-010	0.00000E+000	-2.12700E-001	9.65922E-004	4	..........a	-327.66
	126	25.4	-1.82714E-001	1.32043E-010	0.00000E+000	-1.82700E-001	9.79122E-004	4	..........a	-327.66
	129	26	-1.52649E-001	1.37133E-010	0.00000E+000	-1.52700E-001	9.88022E-004	4	..........a	-327.66
	132	26.6	-1.22650E-001	1.40036E-010	0.00000E+000	-1.22700E-001	9.80122E-004	4	..........a	-327.66
	135	27.2	-9.26583E-002	1.41529E-010	0.00000E+000	-9.27000E-002	9.75522E-004	4	..........a	-327.66
	138	27.8	-6.27816E-002	1.45149E-010	0.00000E+000	-6.27000E-002	9.74622E-004	4	..........a	-327.66
	141	28.4	-3.26804E-002	1.43286E-010	0.00000E+000	-3.27000E-002	9.82422E-004	4	..........a	-327.66
	144	29	-2.64336E-003	1.44916E-010	0.00000E+000	-2.69999E-003	9.75322E-004	4	..........a	-327.66
	147	29.6	2.73207E-002	1.44671E-010	0.00000E+000	2.73000E-002	9.69922E-004	4	..........a	-327.66
	150	30.2	5.73196E-002	1.46554E-010	0.00000E+000	5.73000E-002	9.80422E-004	4	..........a	-327.66
	153	30.8	8.73488E-002	1.47319E-010	0.00000E+000	8.73000E-002	9.73222E-004	4	..........a	-327.66
	156	31.4	1.17262E-001	1.48235E-010	0.00000E+000	1.17300E-001	9.79022E-004	4	..........a	-327.66
	159	32	1.47363E-001	1.51078E-010	0.00000E+000	1.47300E-001	9.72722E-004	4	..........a	-327.66
	162	32.6	1.77301E-001	1.58316E-010	0.00000E+000	1.77300E-001	9.76522E-004	4	..........a	-327.66
	165	33.2	2.07260E-001	1.57635E-010	0.00000E+000	2.07300E-001	9.84522E-004	4	..........a	-327.66
	168	33.8	2.37361E-001	1.65828E-010	0.00000E+000	2.37300E-001	9.81822E-004	4	..........a	-327.66
	171	34.4	2.67334E-001	1.72001E-010	0.00000E+000	2.67300E-001	9.79122E-004	4	..........a	-327.66
	174	35	2.97284E-001	1.80594E-010	0.00000E+000	2.97300E-001	9.79922E-004	4	..........a	-327.66
	177	35.6	3.27327E-001	1.86308E-010	0.00000E+000	3.27300E-001	9.84522E-004	4	..........a	-327.66
	180	36.2	3.57401E-001	1.94845E-010	0.00000E+000	3.57300E-001	9.66822E-004	4	..........a	-327.66
	183	36.8	3.87327E-001	2.01117E-010	0.00000E+000	3.87300E-001	9.83222E-004	4	..........a	-327.66
	186	37.4	4.17276E-001	2.09192E-010	0.00000E+000	4.17300E-001	9.74122E-004	4	..........a	-327.66
	189	38	4.47334E-001	2.17632E-010	0.00000E+000	4.47300E-001	9.75222E-004	4	..........a	-327.66
	192	38.6	4.77390E-001	2.24489E-010	0.00000E+000	4.77300E-001	9.85422E-004	4	..........a	-327.66
	195	39.2	5.07124E-001	2.36388E-010	0.00000E+000	5.07300E-001	9.81122E-004	4	..........a	-327.66
	198	39.8	5.37185E-001	2.49499E-010	0.00000E+000	5.37300E-001	9.80922E-004	4	..........a	-327.66
	201	40.4	5.67176E-001	2.62997E-010	0.00000E+000	5.67300E-001	9.95022E-004	4	..........a	-327.66
	204	41	5.97258E-001	2.78825E-010	0.00000E+000	5.97300E-001	9.64222E-004	4	..........a	-327.66
	207	41.6	6.27173E-001	2.95613E-010	0.00000E+000	6.27300E-001	9.70722E-004	4	..........a	-327.66
	210	42.2	6.57156E-001	3.16497E-010	0.00000E+000	6.57300E-001	9.79622E-004	4	..........a	-327.66
	213	42.8	6.87228E-001	3.38753E-010	0.00000E+000	6.87300E-001	9.80622E-004	4	..........a	-327.66
	216	43.4	7.17214E-001	3.65365E-010	0.00000E+000	7.17300E-001	9.80622E-004	4	..........a	-327.66
	219	44	7.47239E-001	3.99834E-010	0.00000E+000	7.47300E-001	9.88122E-004	4	..........a	-327.66
	222	44.6	7.77235E-001	4.43848E-010	0.00000E+000	7.77300E-001	9.98222E-004	4	..........a	-327.66
	224	45	7.97224E-001	4.81332E-010	0.00000E+000	7.97300E-001	9.79922E-004	4	..........a	-327.66
CURVE2	TABLE
	Pt	T	Vf	Im	Vu	Sig	Ach	IERange	Over	Temp
	#	s	V vs. Ref.	A	V	V	V	#	bits	deg C
	225	45.2	7.89908E-001	3.81398E-010	0.00000E+000	7.90000E-001	9.78322E-004	4	..........a	-327.66
	228	45.8	7.59959E-001	2.15158E-010	0.00000E+000	7.60000E-001	9.86422E-004	4	..........a	-327.66
	231	46.4	7.30020E-001	1.39681E-010	0.00000E+000	7.30000E-001	9.85022E-004	4	..........a	-327.66
	234	47	6.99969E-001	9.40874E-011	0.00000E+000	7.00000E-001	9.78422E-004	4	..........a	-327.66
	237	47.6	6.69861E-001	6.51453E-011	0.00000E+000	6.70000E-001	9.67222E-004	4	..........a	-327.66
	240	48.2	6.39884E-001	4.08674E-011	0.00000E+000	6.40000E-001	9.70622E-004	4	..........a	-327.66
	243	48.8	6.09930E-001	2.25997E-011	0.00000E+000	6.10000E-001	9.82722E-004	4	..........a	-327.66
	246	49.4	5.79973E-001	3.72594E-012	0.00000E+000	5.80000E-001	9.76522E-004	4	..........a	-327.66
	249	50	5.49937E-001	-1.12406E-011	0.00000E+000	5.50000E-001	9.58522E-004	4	..........a	-327.66
	252	50.6	5.19953E-001	-2.63892E-011	0.00000E+000	5.20000E-001	9.82322E-004	4	..........a	-327.66
	255	51.2	4.89992E-001	-3.89107E-011	0.00000E+000	4.90000E-001	9.78522E-004	4	..........a	-327.66
	258	51.8	4.60014E-001	-5.01441E-011	0.00000E+000	4.60000E-001	9.87522E-004	4	..........a	-327.66
	261	52.4	4.29946E-001	-6.08055E-011	0.00000E+000	4.30000E-001	1.00282E-003	4	..........a	-327.66
	264	53	3.99956E-001	-7.08219E-011	0.00000E+000	4.00000E-001	9.90822E-004	4	..........a	-327.66
	267	53.6	3.69979E-001	-8.09183E-011	0.00000E+000	3.70000E-001	9.62822E-004	4	..........a	-327.66
	270	54.2	3.40063E-001	-8.88636E-011	0.00000E+000	3.40000E-001	9.94322E-004	4	..........a	-327.66
	273	54.8	3.09974E-001	-9.79800E-011	0.00000E+000	3.10000E-001	9.92022E-004	4	..........a	-327.66
	276	55.4	2.79992E-001	-1.04362E-010	0.00000E+000	2.80000E-001	9.97222E-004	4	..........a	-327.66
	279	56	2.49948E-001	-1.10545E-010	0.00000E+000	2.50000E-001	9.71622E-004	4	..........a	-327.66
	282	56.6	2.20026E-001	-1.15728E-010	0.00000E+000	2.20000E-001	9.93922E-004	4	..........a	-327.66
	285	57.2	1.90046E-001	-1.19722E-010	0.00000E+000	1.90000E-001	9.83622E-004	4	..........a	-327.66
	288	57.8	1.60042E-001	-1.22601E-010	0.00000E+000	1.60000E-001	9.68122E-004	4	..........a	-327.66
	291	58.4	1.30063E-001	-1.26658E-010	0.00000E+000	1.30000E-001	9.72422E-004	4	..........a	-327.66
	294	59	9.99957E-002	-1.30824E-010	0.00000E+000	1.00000E-001	9.94322E-004	4	..........a	-327.66
	297	59.6	6.99649E-002	-1.36071E-010	0.00000E+000	7.00000E-002	9.90622E-004	4	..........a	-327.66
	300	60.2	3.99552E-002	-1.44437E-010	0.00000E+000	4.00000E-002	9.66922E-004	4	..........a	-327.66
	303	60.8	1.00766E-002	-1.52210E-010	0.00000E+000	1.00000E-002	9.85122E-004	4	..........a	-327.66
	306	61.4	-1.99466E-002	-1.62585E-010	0.00000E+000	-2.00000E-002	9.95422E-004	4	..........a	-327.66
	309	62	-5.00437E-002	-1.75592E-010	0.00000E+000	-5.00000E-002	9.72922E-004	4	..........a	-327.66
	312	62.6	-8.00019E-002	-1.89212E-010	0.00000E+000	-8.00000E-002	9.88422E-004	4	..........a	-327.66
	315	63.2	-1.10035E-001	-2.04644E-010	0.00000E+000	-1.10000E-001	9.84922E-004	4	..........a	-327.66
	318	63.8	-1.39902E-001	-2.21812E-010	0.00000E+000	-1.40000E-001	9.80022E-004	4	..........a	-327.66
	321	64.4	-1.69971E-001	-2.40138E-010	0.00000E+000	-1.70000E-001	9.80922E-004	4	..........a	-327.66
	324	65	-2.00064E-001	-2.62194E-010	0.00000E+000	-2.00000E-001	9.69122E-004	4	..........a	-327.66
	327	65.6	-2.29929E-001	-2.91673E-010	0.00000E+000	-2.30000E-001	9.92222E-004	4	..........a	-327.66
	330	66.2	-2.59862E-001	-3.17710E-010	0.00000E+000	-2.60000E-001	9.85122E-004	4	..........a	-327.66
	333	66.8	-2.89999E-001	-3.52596E-010	0.00000E+000	-2.90000E-001	9.65222E-004	4	..........a	-327.66
	336	67.4	-3.19870E-001	-3.93127E-010	0.00000E+000	-3.20000E-001	9.73722E-004	4	..........a	-327.66
	339	68	-3.49887E-001	-4.36565E-010	0.00000E+000	-3.50000E-001	9.69322E-004	4	..........a	-327.66
	342	68.6	-3.79902E-001	-4.81980E-010	0.00000E+000	-3.80000E-001	9.75022E-004	4	..........a	-327.66
	345	69.2	-4.09940E-001	-5.29500E-010	0.00000E+000	-4.10000E-001	9.81122E-004	4	..........a	-327.66
	348	69.8	-4.39875E-001	-5.82068E-010	0.00000E+000	-4.40000E-001	9.76222E-004	4	..........a	-327.66
	351	70.4	-4.69836E-001	-6.37826E-010	0.00000E+000	-4.70000E-001	9.67922E-004	4	..........a	-327.66
	354	71	-4.99865E-001	-6.99395E-010	0.00000E+000	-5.00000E-001	9.80922E-004	4	..........a	-327.66
	357	71.6	-5.29901E-001	-7.70620E-010	0.00000E+000	-5.30000E-001	9.77222E-004	4	..........a	-327.66
	360	72.2	-5.59876E-001	-8.55610E-010	0.00000E+000	-5.60000E-001	9.89022E-004	4	..........a	-327.66
[...]
	977	195.6	-6.99611E-002	1.58669E-010	0.00000E+000	-7.00000E-002	9.84722E-004	4	..........a	-327.66
	980	196.2	-3.99341E-002	1.60896E-010	0.00000E+000	-4.00000E-002	9.79422E-004	4	..........a	-327.66
	983	196.8	-1.00260E-002	1.58470E-010	0.00000E+000	-1.00000E-002	9.67222E-004	4	..........a	-327.66
	986	197.4	2.00908E-002	1.60334E-010	0.00000E+000	2.00000E-002	9.96422E-004	4	..........a	-327.66
	989	198	5.00113E-002	1.60093E-010	0.00000E+000	5.00000E-002	9.65122E-004	4	..........a	-327.66
	992	198.6	8.00142E-002	1.57399E-010	0.00000E+000	8.00000E-002	9.80922E-004	4	..........a	-327.66
	995	199.2	1.10050E-001	1.63337E-010	0.00000E+000	1.10000E-001	9.68722E-004	4	..........a	-327.66
	998	199.8	1.40087E-001	1.66874E-010	0.00000E+000	1.40000E-001	9.75822E-004	4	..........a	-327.66
	1001	200.4	1.70097E-001	1.72215E-010	0.00000E+000	1.70000E-001	9.74822E-004	4	..........a	-327.66
	1004	201	2.00037E-001	1.80736E-010	0.00000E+000	2.00000E-001	9.86022E-004	4	..........a	-327.66
	1007	201.6	2.29906E-001	1.92156E-010	0.00000E+000	2.30000E-001	9.83022E-004	4	..........a	-327.66
	1010	202.2	2.60034E-001	2.00287E-010	0.00000E+000	2.60000E-001	9.95122E-004	4	..........a	-327.66
	1013	202.8	2.89995E-001	2.09760E-010	0.00000E+000	2.90000E-001	9.78322E-004	4	..........a	-327.66
	1016	203.4	3.20011E-001	2.17528E-010	0.00000E+000	3.20000E-001	9.94422E-004	4	..........a	-327.66
	1019	204	3.49988E-001	2.23265E-010	0.00000E+000	3.50000E-001	9.86822E-004	4	..........a	-327.66
	1022	204.6	3.79984E-001	2.29089E-010	0.00000E+000	3.80000E-001	9.79422E-004	4	..........a	-327.66
	1025	205.2	4.09973E-001	2.34173E-010	0.00000E+000	4.10000E-001	9.85522E-004	4	..........a	-327.66
	1028	205.8	4.39885E-001	2.35944E-010	0.00000E+000	4.40000E-001	9.94722E-004	4	..........a	-327.66
	1031	206.4	4.69944E-001	2.40350E-010	0.00000E+000	4.70000E-001	9.90722E-004	4	..........a	-327.66
	1034	207	5.00012E-001	2.45933E-010	0.00000E+000	5.00000E-001	9.75222E-004	4	..........a	-327.66
	1037	207.6	5.29963E-001	2.51929E-010	0.00000E+000	5.30000E-001	9.89822E-004	4	..........a	-327.66
	1040	208.2	5.59912E-001	2.58971E-010	0.00000E+000	5.60000E-001	9.88622E-004	4	..........a	-327.66
	1043	208.8	5.89908E-001	2.68109E-010	0.00000E+000	5.90000E-001	9.73022E-004	4	..........a	-327.66
	1046	209.4	6.19980E-001	2.80747E-010	0.00000E+000	6.20000E-001	9.91522E-004	4	..........a	-327.66
	1049	210	6.49943E-001	2.96040E-010	0.00000E+000	6.50000E-001	9.79922E-004	4	..........a	-327.66
	1052	210.6	6.79981E-001	3.15405E-010	0.00000E+000	6.80000E-001	9.72422E-004	4	..........a	-327.66
	1055	211.2	7.09867E-001	3.39386E-010	0.00000E+000	7.10000E-001	9.86422E-004	4	..........a	-327.66
	1058	211.8	7.39968E-001	3.71470E-010	0.00000E+000	7.40000E-001	9.87922E-004	4	..........a	-327.66
	1061	212.4	7.69904E-001	4.13775E-010	0.00000E+000	7.70000E-001	9.68722E-004	4	..........a	-327.66
	1064	213	7.99945E-001	4.73438E-010	0.00000E+000	8.00000E-001	9.76922E-004	4	..........a	-327.66
CURVE5	TABLE
	Pt	T	Vf	Im	Vu	Sig	Ach	IERange	Over	Temp
	#	s	V vs. Ref.	A	V	V	V	#	bits	deg C
	1065	213.2	7.89842E-001	3.52377E-010	0.00000E+000	7.90000E-001	9.79822E-004	4	..........a	-327.66
	1066	213.4	7.79964E-001	2.81516E-010	0.00000E+000	7.80000E-001	9.89722E-004	4	..........a	-327.66
	1067	213.6	7.69981E-001	2.32119E-010	0.00000E+000	7.70000E-001	9.83322E-004	4	..........a	-327.66
	1068	213.8	7.59958E-001	1.93562E-010	0.00000E+000	7.60000E-001	9.77422E-004	4	..........a	-327.66
	1069	214	7.49930E-001	1.64786E-010	0.00000E+000	7.50000E-001	9.76122E-004	4	..........a	-327.66
	1070	214.2	7.39999E-001	1.38681E-010	0.00000E+000	7.40000E-001	1.00182E-003	4	..........a	-327.66
	1071	214.4	7.29968E-001	1.21458E-010	0.00000E+000	7.30000E-001	9.90322E-004	4	..........a	-327.66
	1072	214.6	7.19972E-001	1.02837E-010	0.00000E+000	7.20000E-001	9.98922E-004	4	..........a	-327.66
	1073	214.8	7.09954E-001	8.80492E-011	0.00000E+000	7.10000E-001	1.00092E-003	4	..........a	-327.66
	1074	215	6.99982E-001	7.40006E-011	0.00000E+000	7.00000E-001	9.85422E-004	4	..........a	-327.66
	1075	215.2	6.89882E-001	6.21002E-011	0.00000E+000	6.90000E-001	9.70122E-004	4	..........a	-327.66
	1076	215.4	6.79819E-001	5.32448E-011	0.00000E+000	6.80000E-001	9.73222E-004	4	..........a	-327.66
	1077	215.6	6.69928E-001	4.30855E-011	0.00000E+000	6.70000E-001	9.87622E-004	4	..........a	-327.66
	1078	215.8	6.60026E-001	3.58732E-011	0.00000E+000	6.60000E-001	9.80622E-004	4	..........a	-327.66
	1079	216	6.49890E-001	3.06520E-011	0.00000E+000	6.50000E-001	9.84322E-004	4	..........a	-327.66
	1080	216.2	6.39904E-001	2.13756E-011	0.00000E+000	6.40000E-001	1.01172E-003	4	..........a	-327.66
	1081	216.4	6.29879E-001	1.45044E-011	0.00000E+000	6.30000E-001	9.73922E-004	4	..........a	-327.66
	1082	216.6	6.19994E-001	9.29616E-012	0.00000E+000	6.20000E-001	9.83222E-004	4	..........a	-327.66
	1083	216.8	6.09924E-001	3.59794E-012	0.00000E+000	6.10000E-001	9.77222E-004	4	..........a	-327.66
	1084	217	5.99897E-001	-2.50230E-012	0.00000E+000	6.00000E-001	9.52822E-004	4	..........a	-327.66
	1085	217.2	5.89978E-001	-6.39745E-012	0.00000E+000	5.90000E-001	9.83622E-004	4	..........a	-327.66
	1086	217.4	5.80014E-001	-9.83358E-012	0.00000E+000	5.80000E-001	9.86622E-004	4	..........a	-327.66
	1087	217.6	5.69924E-001	-1.61618E-011	0.00000E+000	5.70000E-001	9.68322E-004	4	..........a	-327.66
	1088	217.8	5.59859E-001	-2.04800E-011	0.00000E+000	5.60000E-001	9.81222E-004	4	..........a	-327.66
	1089	218	5.49983E-001	-2.36931E-011	0.00000E+000	5.50000E-001	9.78122E-004	4	..........a	-327.66
	1090	218.2	5.40008E-001	-2.80603E-011	0.00000E+000	5.40000E-001	9.85422E-004	4	..........a	-327.66
	1091	218.4	5.29965E-001	-3.32455E-011	0.00000E+000	5.30000E-001	9.83522E-004	4	..........a	-327.66
	1092	218.6	5.19970E-001	-3.66236E-011	0.00000E+000	5.20000E-001	9.68222E-004	4	..........a	-327.66
	1093	218.8	5.09980E-001	-3.90687E-011	0.00000E+000	5.10000E-001	9.85822E-004	4	..........a	-327.66
	1094	219	5.00071E-001	-4.25008E-011	0.00000E+000	5.00000E-001	9.89422E-004	4	..........a	-327.66
	1095	219.2	4.89914E-001	-4.71650E-011	0.00000E+000	4.90000E-001	9.75022E-004	4	..........a	-327.66
	1096	219.4	4.79983E-001	-5.13942E-011	0.00000E+000	4.80000E-001	9.74022E-004	4	..........a	-327.66
	1097	219.6	4.69981E-001	-5.44813E-011	0.00000E+000	4.70000E-001	1.00052E-003	4	..........a	-327.66
	1098	219.8	4.60028E-001	-5.77214E-011	0.00000E+000	4.60000E-001	9.82122E-004	4	..........a	-327.66
	1099	220	4.49962E-001	-6.26686E-011	0.00000E+000	4.50000E-001	9.76222E-004	4	..........a	-327.66
	1100	220.2	4.39968E-001	-6.53087E-011	0.00000E+000	4.40000E-001	9.94822E-004	4	..........a	-327.66
	1101	220.4	4.29991E-001	-6.97299E-011	0.00000E+000	4.30000E-001	9.94722E-004	4	..........a	-327.66
	1102	220.6	4.20023E-001	-7.30250E-011	0.00000E+000	4.20000E-001	9.73522E-004	4	..........a	-327.66
	1103	220.8	4.09901E-001	-7.77262E-011	0.00000E+000	4.10000E-001	9.82822E-004	4	..........a	-327.66
	1104	221	3.99974E-001	-8.12643E-011	0.00000E+000	4.00000E-001	9.79522E-004	4	..........a	-327.66
	1105	221.2	3.89986E-001	-8.47225E-011	0.00000E+000	3.90000E-001	1.00472E-003	4	..........a	-327.66
	1106	221.4	3.80033E-001	-8.78876E-011	0.00000E+000	3.80000E-001	9.83122E-004	4	..........a	-327.66
	1107	221.6	3.70006E-001	-9.12177E-011	0.00000E+000	3.70000E-001	9.79222E-004	4	..........a	-327.66
	1108	221.8	3.60001E-001	-9.51589E-011	0.00000E+000	3.60000E-001	9.90922E-004	4	..........a	-327.66
	1109	222	3.49979E-001	-9.87750E-011	0.00000E+000	3.50000E-001	9.80722E-004	4	..........a	-327.66
	1110	222.2	3.40056E-001	-1.00672E-010	0.00000E+000	3.40000E-001	9.77422E-004	4	..........a	-327.66
	1111	222.4	3.30024E-001	-1.04353E-010	0.00000E+000	3.30000E-001	9.87522E-004	4	..........a	-327.66
	1112	222.6	3.19992E-001	-1.07619E-010	0.00000E+000	3.20000E-001	9.85122E-004	4	..........a	-327.66
	1113	222.8	3.09965E-001	-1.10705E-010	0.00000E+000	3.10000E-001	9.91522E-004	4	..........a	-327.66
	1114	223	3.00029E-001	-1.13414E-010	0.00000E+000	3.00000E-001	9.73122E-004	4	..........a	-327.66
	1115	223.2	2.90009E-001	-1.16128E-010	0.00000E+000	2.90000E-001	9.76622E-004	4	..........a	-327.66
	1116	223.4	2.79997E-001	-1.18384E-010	0.00000E+000	2.80000E-001	9.83222E-004	4	..........a	-327.66
	1117	223.6	2.70015E-001	-1.20508E-010	0.00000E+000	2.70000E-001	9.63722E-004	4	..........a	-327.66
	1118	223.8	2.60019E-001	-1.22994E-010	0.00000E+000	2.60000E-001	9.79722E-004	4	..........a	-327.66
	1119	224	2.50041E-001	-1.24773E-010	0.00000E+000	2.50000E-001	9.85522E-004	4	..........a	-327.66
	1120	224.2	2.39962E-001	-1.27588E-010	0.00000E+000	2.40000E-001	9.84822E-004	4	..........a	-327.66