File: data/raw/batch_data/20240321_ZZK_GM0016_HL03_E16_CV50.DTA
EXPLAIN
TAG	CV
TITLE	LABEL	Cyclic Voltammetry	Test &Identifier
DATE	LABEL	3/21/2024	Date
TIME	LABEL	20:02:12	Time
NOTES	NOTES	1	&Notes...

PSTAT	PSTAT	REF600P-43058	Potentiostat
VINIT	POTEN	0.00000E+000	T	Initial &E (V)
VLIMIT1	POTEN	-6.00000E-001	F	Scan Limit &1 (V)
VLIMIT2	POTEN	8.00000E-001	F	Scan Limit &2 (V)
VFINAL	POTEN	0.00000E+000	T	Final &E (V)
SCANRATE	QUANT	4.99999E+001	&Scan Rate (mV/s)
STEPSIZE	QUANT	1.00000E+001	St&ep Size (mV)
CYCLES	IQUANT	4	C&ycles (#)
IMODE	SELECTOR	1	I/E Range &Mode
IRANGE	QUANT	1.00000E-005	&Max Current (mA)
AREA	QUANT	1.00000E+000	Electrode &Area (cm^2)
ELECTRODETYPE	SELECTOR	0	Electrode Type
STRIPPING	TOGGLE	F	Used for Stripping
POLARITY	TOGGLE	F	Signal Polarity
CONDIT	TWOPARAM	F	1.50000E+001	0.00000E+000	Conditionin&g	Time(s)	E(V)
DELAY	TWOPARAM	T	1.00000E+001	0.00000E+000	Init. De&lay	Time(s)	Stab.(mV/s)
EQDELAY	QUANT	1.00000E+001	Equil. &Time (s)
IRCOMP	SELECTOR	0	IRCom&p
PFCOR	QUANT	5.00000E+001	PF Corr. (ohm)
SAMPLINGMODE	SELECTOR	1	Sampling &Mode
OCVCURVE	TABLE	39
	Pt	T	Vf	Vm	Ach	Over	Temp
	#	s	V vs. Ref.	V	V	bits	deg C
	0	0.258333	1.39084E-001	1.39084E-001	2.45822E-004	..........a	-327.66
	1	0.516667	1.39096E-001	1.39730E-001	2.52956E-004	..........a	-327.66
	2	0.775	1.39173E-001	1.40380E-001	2.50756E-004	..........a	-327.66
	3	1.03333	1.39392E-001	1.41039E-001	2.48089E-004	..........a	-327.66
	4	1.29167	1.39793E-001	1.41697E-001	2.47089E-004	..........a	-327.66
	5	1.55	1.40341E-001	1.42345E-001	2.42622E-004	..........a	-327.66
	6	1.80833	1.40970E-001	1.42993E-001	2.45889E-004	..........a	-327.66
	7	2.06667	1.41627E-001	1.43637E-001	2.38289E-004	..........a	-327.66
	8	2.325	1.42286E-001	1.44281E-001	2.43622E-004	..........a	-327.66
	9	2.58333	1.42939E-001	1.44928E-001	2.50822E-004	..........a	-327.66
	10	2.84167	1.43587E-001	1.45562E-001	2.58022E-004	..........a	-327.66
	11	3.1	1.44231E-001	1.46193E-001	2.56156E-004	..........a	-327.66
	12	3.35833	1.44872E-001	1.46829E-001	2.30689E-004	..........a	-327.66
	13	3.61667	1.45510E-001	1.47455E-001	2.48422E-004	..........a	-327.66
	14	3.875	1.46144E-001	1.48083E-001	2.34222E-004	..........a	-327.66
	15	4.13333	1.46776E-001	1.48703E-001	2.41822E-004	..........a	-327.66
	16	4.39167	1.47405E-001	1.49322E-001	2.50556E-004	..........a	-327.66
	17	4.65	1.48030E-001	1.49926E-001	2.49356E-004	..........a	-327.66
	18	4.90833	1.48652E-001	1.50546E-001	2.42622E-004	..........a	-327.66
	19	5.16667	1.49269E-001	1.51152E-001	2.51022E-004	..........a	-327.66
	20	5.425	1.49882E-001	1.51754E-001	2.35156E-004	..........a	-327.66
	21	5.68333	1.50494E-001	1.52358E-001	2.37356E-004	..........a	-327.66
	22	5.94167	1.51101E-001	1.52955E-001	2.52422E-004	..........a	-327.66
	23	6.2	1.51706E-001	1.53546E-001	2.45089E-004	..........a	-327.66
	24	6.45833	1.52308E-001	1.54143E-001	2.47156E-004	..........a	-327.66
	25	6.71667	1.52906E-001	1.54729E-001	2.38956E-004	..........a	-327.66
	26	6.975	1.53500E-001	1.55312E-001	2.39489E-004	..........a	-327.66
	27	7.23333	1.54092E-001	1.55895E-001	2.42889E-004	..........a	-327.66
	28	7.49167	1.54681E-001	1.56475E-001	2.44022E-004	..........a	-327.66
	29	7.75	1.55266E-001	1.57048E-001	2.44289E-004	..........a	-327.66
	30	8.00833	1.55847E-001	1.57617E-001	2.45422E-004	..........a	-327.66
	31	8.26667	1.56426E-001	1.58188E-001	2.38489E-004	..........a	-327.66
	32	8.525	1.57001E-001	1.58766E-001	2.49489E-004	..........a	-327.66
	33	8.78333	1.57574E-001	1.59324E-001	2.44289E-004	..........a	-327.66
	34	9.04167	1.58145E-001	1.59880E-001	2.42956E-004	..........a	-327.66
	35	9.3	1.58713E-001	1.60433E-001	2.54289E-004	..........a	-327.66
	36	9.5583	1.59276E-001	1.60989E-001	2.49089E-004	..........a	-327.66
	37	9.8167	1.59835E-001	1.61538E-001	2.47022E-004	..........a	-327.66
	38	10.075	1.60390E-001	1.62094E-001	2.44756E-004	..........a	-327.66
EOC	QUANT	0.1603904	Open Circuit (V)
PSTATMODEL	IQUANT	7	Pstat Model
PSTATSECTION	LABEL	REF600P-43058	Pstat Section
PSTATSERIALNO	LABEL	43058	Pstat Serial Number
CTRLMODE	IQUANT	1	Control Mode
ELECTROMETER	IQUANT	0	RE=0 or CS=1
IESTAB	IQUANT	2	I/E Stability
CASPEED	IQUANT	4	Control Amp Speed
CONVENTION	IQUANT	1	Current Convention
ICHRANGE	IQUANT	2	Ich Range
ICHRANGEMODE	TOGGLE	F	Ich Auto Range
ICHOFFSETENABLE	TOGGLE	F	Ich Offset Enable
ICHOFFSET	QUANT	0	Ich Offset (V)
ICHFILTER	IQUANT	2	Ich Filter
VCHRANGE	IQUANT	2	Vch Range
VCHRANGEMODE	TOGGLE	F	Vch Auto Range
VCHOFFSETENABLE	TOGGLE	F	Vch Offset Enable
VCHOFFSET	QUANT	0	Vch Offset (V)
VCHFILTER	IQUANT	2	Vch Filter
ACHRANGE	IQUANT	2	Ach Range
ACHOFFSETENABLE	TOGGLE	F	Ach Offset Enable
ACHOFFSET	QUANT	0	Ach Offset (V)
ACHFILTER	IQUANT	1	Ach Filter
IERANGELOWERLIMIT	IQUANT	1	I/E Range Lower Limit
IERANGEMODE	TOGGLE	F	I/E AutoRange
IERANGE	IQUANT	4	I/E Range
POSFEEDENABLE	TOGGLE	F	Positive Feedback IR Comp
POSFEEDRESISTANCE	QUANT	0	Positive Feedback Resistance (ohm)
ACHSELECT	IQUANT	4	Ach Select
SENSECABLEID	IQUANT	7	Sense Cable ID
PWRCABLEID	IQUANT	7	Power Cable ID
DCCALDATE	LABEL	12/18/2023	DC Calibration Date
ACCALDATE	LABEL	12/18/2023	AC Calibration Date
THERMOSELECT	IQUANT	1	Thermo Select
FRAMEWORKVERSION	LABEL	7.8.4	Framework Version
INSTRUMENTVERSION	LABEL	4.42	Instrument Version
CURVE1	TABLE
	Pt	T	Vf	Im	Vu	Sig	Ach	IERange	Over	Temp
	#	s	V vs. Ref.	A	V	V	V	#	bits	deg C
	0	0.2	1.60483E-001	3.85303E-011	0.00000E+000	1.60400E-001	9.88822E-004	4	..........a	-327.66
	3	0.8	1.30458E-001	-1.15346E-011	0.00000E+000	1.30400E-001	1.00772E-003	4	..........a	-327.66
	6	1.4	1.00390E-001	-2.72062E-011	0.00000E+000	1.00400E-001	1.00982E-003	4	..........a	-327.66
	9	2	7.04280E-002	-3.74896E-011	0.00000E+000	7.04000E-002	1.01912E-003	4	..........a	-327.66
	12	2.6	4.04179E-002	-4.41899E-011	0.00000E+000	4.04000E-002	9.75322E-004	4	..........a	-327.66
	15	3.2	1.04818E-002	-5.07661E-011	0.00000E+000	1.04000E-002	9.89322E-004	4	..........a	-327.66
	18	3.8	-1.95751E-002	-5.69684E-011	0.00000E+000	-1.96000E-002	9.97422E-004	4	..........a	-327.66
	21	4.4	-4.96179E-002	-6.57347E-011	0.00000E+000	-4.96000E-002	9.93722E-004	4	..........a	-327.66
	24	5	-7.95601E-002	-7.34160E-011	0.00000E+000	-7.96000E-002	9.98422E-004	4	..........a	-327.66
	27	5.6	-1.09570E-001	-8.56165E-011	0.00000E+000	-1.09600E-001	1.02612E-003	4	..........a	-327.66
	30	6.2	-1.39578E-001	-9.98070E-011	0.00000E+000	-1.39600E-001	9.74922E-004	4	..........a	-327.66
	33	6.8	-1.69555E-001	-1.15464E-010	0.00000E+000	-1.69600E-001	9.95622E-004	4	..........a	-327.66
	36	7.4	-1.99585E-001	-1.32263E-010	0.00000E+000	-1.99600E-001	1.00342E-003	4	..........a	-327.66
	39	8	-2.29522E-001	-1.55028E-010	0.00000E+000	-2.29600E-001	9.86622E-004	4	..........a	-327.66
	42	8.6	-2.59598E-001	-1.81662E-010	0.00000E+000	-2.59600E-001	9.96722E-004	4	..........a	-327.66
	45	9.2	-2.89589E-001	-2.15663E-010	0.00000E+000	-2.89600E-001	1.02002E-003	4	..........a	-327.66
	48	9.8	-3.19529E-001	-2.58442E-010	0.00000E+000	-3.19600E-001	1.00222E-003	4	..........a	-327.66
	51	10.4	-3.49514E-001	-3.10618E-010	0.00000E+000	-3.49600E-001	9.85722E-004	4	..........a	-327.66
	54	11	-3.79505E-001	-3.79400E-010	0.00000E+000	-3.79600E-001	1.01312E-003	4	..........a	-327.66
	57	11.6	-4.09480E-001	-4.63220E-010	0.00000E+000	-4.09600E-001	9.86222E-004	4	..........a	-327.66
	60	12.2	-4.39465E-001	-5.61309E-010	0.00000E+000	-4.39600E-001	9.89522E-004	4	..........a	-327.66
	63	12.8	-4.69466E-001	-6.73831E-010	0.00000E+000	-4.69600E-001	9.87322E-004	4	..........a	-327.66
	66	13.4	-4.99481E-001	-7.99063E-010	0.00000E+000	-4.99600E-001	9.95222E-004	4	..........a	-327.66
	69	14	-5.29470E-001	-9.28044E-010	0.00000E+000	-5.29600E-001	9.83122E-004	4	..........a	-327.66
	72	14.6	-5.59471E-001	-1.06581E-009	0.00000E+000	-5.59600E-001	1.00812E-003	4	..........a	-327.66
	75	15.2	-5.89514E-001	-1.21773E-009	0.00000E+000	-5.89600E-001	1.01722E-003	4	..........a	-327.66
	78	15.8	-5.79451E-001	-8.64880E-010	0.00000E+000	-5.79600E-001	9.83422E-004	4	..........a	-327.66
	81	16.4	-5.49509E-001	-5.98433E-010	0.00000E+000	-5.49600E-001	9.79722E-004	4	..........a	-327.66
	84	17	-5.19510E-001	-4.26409E-010	0.00000E+000	-5.19600E-001	9.74622E-004	4	..........a	-327.66
	87	17.6	-4.89457E-001	-2.99144E-010	0.00000E+000	-4.89600E-001	9.97222E-004	4	..........a	-327.66
	90	18.2	-4.59551E-001	-1.97318E-010	0.00000E+000	-4.59600E-001	1.00532E-003	4	..........a	-327.66
	93	18.8	-4.29471E-001	-1.16897E-010	0.00000E+000	-4.29600E-001	9.97122E-004	4	..........a	-327.66
	96	19.4	-3.99513E-001	-5.03541E-011	0.00000E+000	-3.99600E-001	1.00092E-003	4	..........a	-327.66
	99	20	-3.69682E-001	3.70994E-012	0.00000E+000	-3.69600E-001	9.94922E-004	4	..........a	-327.66
	102	20.6	-3.39609E-001	4.64216E-011	0.00000E+000	-3.39600E-001	9.99822E-004	4	..........a	-327.66
	105	21.2	-3.09521E-001	8.13169E-011	0.00000E+000	-3.09600E-001	9.78122E-004	4	..........a	-327.66
	108	21.8	-2.79493E-001	1.06575E-010	0.00000E+000	-2.79600E-001	9.79522E-004	4	..........a	-327.66
	111	22.4	-2.49533E-001	1.26496E-010	0.00000E+000	-2.49600E-001	1.01672E-003	4	..........a	-327.66
	114	23	-2.19515E-001	1.38072E-010	0.00000E+000	-2.19600E-001	1.01022E-003	4	..........a	-327.66
	117	23.6	-1.89455E-001	1.47460E-010	0.00000E+000	-1.89600E-001	9.86822E-004	4	..........a	-327.66
	120	24.2	-1.59530E-001	1.55497E-010	0.00000E+000	-1.59600E-001	9.88922E-004	4	..........a	-327.66
	123	24.8	-1.29547E-001	1.62245E-010	0.00000E+000	-1.29600E-001	1.02162E-003	4	..........a	-327.66
	126	25.4	-9.95865E-002	1.66479E-010	0.00000E+000	-9.96000E-002	1.02322E-003	4	..........a	-327.66
	129	26	-6.95075E-002	1.72718E-010	0.00000E+000	-6.96000E-002	9.83822E-004	4	..........a	-327.66
	132	26.6	-3.95592E-002	1.78910E-010	0.00000E+000	-3.96000E-002	9.85622E-004	4	..........a	-327.66
	135	27.2	-9.55261E-003	1.85430E-010	0.00000E+000	-9.60000E-003	9.89522E-004	4	..........a	-327.66
	138	27.8	2.03994E-002	1.93813E-010	0.00000E+000	2.04000E-002	1.00812E-003	4	..........a	-327.66
	141	28.4	5.04595E-002	2.02577E-010	0.00000E+000	5.04000E-002	9.90022E-004	4	..........a	-327.66
	144	29	8.04685E-002	2.12698E-010	0.00000E+000	8.04000E-002	9.98322E-004	4	..........a	-327.66
	147	29.6	1.10465E-001	2.20509E-010	0.00000E+000	1.10400E-001	9.95922E-004	4	..........a	-327.66
	150	30.2	1.40445E-001	2.33745E-010	0.00000E+000	1.40400E-001	9.99122E-004	4	..........a	-327.66
	153	30.8	1.70378E-001	2.46332E-010	0.00000E+000	1.70400E-001	1.04372E-003	4	..........a	-327.66
	156	31.4	2.00463E-001	2.59509E-010	0.00000E+000	2.00400E-001	9.97722E-004	4	..........a	-327.66
	159	32	2.30357E-001	2.74027E-010	0.00000E+000	2.30400E-001	9.99922E-004	4	..........a	-327.66
	162	32.6	2.60341E-001	2.91819E-010	0.00000E+000	2.60400E-001	1.02712E-003	4	..........a	-327.66
	165	33.2	2.90446E-001	3.12089E-010	0.00000E+000	2.90400E-001	1.00382E-003	4	..........a	-327.66
	168	33.8	3.20406E-001	3.38040E-010	0.00000E+000	3.20400E-001	1.00472E-003	4	..........a	-327.66
	171	34.4	3.50342E-001	3.69950E-010	0.00000E+000	3.50400E-001	1.01202E-003	4	..........a	-327.66
	174	35	3.80349E-001	4.08479E-010	0.00000E+000	3.80400E-001	1.00632E-003	4	..........a	-327.66
	177	35.6	4.10428E-001	4.51887E-010	0.00000E+000	4.10400E-001	1.00772E-003	4	..........a	-327.66
	180	36.2	4.40341E-001	5.02500E-010	0.00000E+000	4.40400E-001	1.00782E-003	4	..........a	-327.66
	183	36.8	4.70398E-001	5.54459E-010	0.00000E+000	4.70400E-001	1.02352E-003	4	..........a	-327.66
	186	37.4	5.00376E-001	6.10198E-010	0.00000E+000	5.00400E-001	9.98722E-004	4	..........a	-327.66
	189	38	5.30417E-001	6.68751E-010	0.00000E+000	5.30400E-001	1.00382E-003	4	..........a	-327.66
	192	38.6	5.60386E-001	7.28562E-010	0.00000E+000	5.60400E-001	1.00162E-003	4	..........a	-327.66
	195	39.2	5.90351E-001	7.92163E-010	0.00000E+000	5.90400E-001	1.01502E-003	4	..........a	-327.66
	198	39.8	6.20310E-001	8.56039E-010	0.00000E+000	6.20400E-001	1.00152E-003	4	..........a	-327.66
	201	40.4	6.50372E-001	9.23648E-010	0.00000E+000	6.50400E-001	9.89722E-004	4	..........a	-327.66
	204	41	6.80113E-001	9.97299E-010	0.00000E+000	6.80400E-001	9.83622E-004	4	..........a	-327.66
	207	41.6	7.10305E-001	1.07664E-009	0.00000E+000	7.10400E-001	1.00652E-003	4	..........a	-327.66
	210	42.2	7.40275E-001	1.16678E-009	0.00000E+000	7.40400E-001	1.00202E-003	4	..........a	-327.66
	213	42.8	7.70396E-001	1.25791E-009	0.00000E+000	7.70400E-001	1.01312E-003	4	..........a	-327.66
	216	43.4	8.00311E-001	1.35506E-009	0.00000E+000	8.00400E-001	9.81822E-004	4	..........a	-327.66
CURVE2	TABLE
	Pt	T	Vf	Im	Vu	Sig	Ach	IERange	Over	Temp
	#	s	V vs. Ref.	A	V	V	V	#	bits	deg C
	217	43.6	7.89900E-001	9.33238E-010	0.00000E+000	7.90000E-001	1.00402E-003	4	..........a	-327.66
	220	44.2	7.59924E-001	4.34355E-010	0.00000E+000	7.60000E-001	1.02222E-003	4	..........a	-327.66
	223	44.8	7.30030E-001	2.32911E-010	0.00000E+000	7.30000E-001	9.93522E-004	4	..........a	-327.66
	226	45.4	6.99988E-001	1.23679E-010	0.00000E+000	7.00000E-001	1.00742E-003	4	..........a	-327.66
	229	46	6.69905E-001	5.10118E-011	0.00000E+000	6.70000E-001	1.01492E-003	4	..........a	-327.66
	232	46.6	6.39909E-001	-2.01209E-013	0.00000E+000	6.40000E-001	9.97822E-004	4	..........a	-327.66
	235	47.2	6.09940E-001	-4.11288E-011	0.00000E+000	6.10000E-001	9.91922E-004	4	..........a	-327.66
	238	47.8	5.80029E-001	-7.22300E-011	0.00000E+000	5.80000E-001	9.93622E-004	4	..........a	-327.66
	241	48.4	5.49961E-001	-9.57699E-011	0.00000E+000	5.50000E-001	9.90822E-004	4	..........a	-327.66
	244	49	5.19980E-001	-1.15419E-010	0.00000E+000	5.20000E-001	9.97922E-004	4	..........a	-327.66
	247	49.6	4.89954E-001	-1.29709E-010	0.00000E+000	4.90000E-001	9.89422E-004	4	..........a	-327.66
	250	50.2	4.59991E-001	-1.38763E-010	0.00000E+000	4.60000E-001	1.00242E-003	4	..........a	-327.66
	253	50.8	4.29965E-001	-1.46924E-010	0.00000E+000	4.30000E-001	1.01012E-003	4	..........a	-327.66
	256	51.4	4.00037E-001	-1.52128E-010	0.00000E+000	4.00000E-001	1.01352E-003	4	..........a	-327.66
	259	52	3.70003E-001	-1.54360E-010	0.00000E+000	3.70000E-001	9.99922E-004	4	..........a	-327.66
	262	52.6	3.40058E-001	-1.55833E-010	0.00000E+000	3.40000E-001	9.87822E-004	4	..........a	-327.66
	265	53.2	3.09980E-001	-1.57175E-010	0.00000E+000	3.10000E-001	1.02082E-003	4	..........a	-327.66
	268	53.8	2.80010E-001	-1.58313E-010	0.00000E+000	2.80000E-001	1.00462E-003	4	..........a	-327.66
	271	54.4	2.50053E-001	-1.59216E-010	0.00000E+000	2.50000E-001	1.00652E-003	4	..........a	-327.66
	274	55	2.20026E-001	-1.60675E-010	0.00000E+000	2.20000E-001	9.90522E-004	4	..........a	-327.66
	277	55.6	1.90041E-001	-1.61588E-010	0.00000E+000	1.90000E-001	1.02232E-003	4	..........a	-327.66
	280	56.2	1.60045E-001	-1.62620E-010	0.00000E+000	1.60000E-001	1.00762E-003	4	..........a	-327.66
	283	56.8	1.30057E-001	-1.63637E-010	0.00000E+000	1.30000E-001	9.88822E-004	4	..........a	-327.66
	286	57.4	1.00040E-001	-1.64971E-010	0.00000E+000	1.00000E-001	9.97422E-004	4	..........a	-327.66
	289	58	7.00012E-002	-1.65967E-010	0.00000E+000	7.00000E-002	9.87822E-004	4	..........a	-327.66
	292	58.6	4.01129E-002	-1.68730E-010	0.00000E+000	4.00000E-002	9.80722E-004	4	..........a	-327.66
	295	59.2	1.00691E-002	-1.72108E-010	0.00000E+000	1.00000E-002	9.85022E-004	4	..........a	-327.66
	298	59.8	-1.99323E-002	-1.77460E-010	0.00000E+000	-2.00000E-002	9.85822E-004	4	..........a	-327.66
	301	60.4	-5.00119E-002	-1.85304E-010	0.00000E+000	-5.00000E-002	9.85922E-004	4	..........a	-327.66
	304	61	-8.00007E-002	-1.94434E-010	0.00000E+000	-8.00000E-002	1.01492E-003	4	..........a	-327.66
	307	61.6	-1.10003E-001	-2.05485E-010	0.00000E+000	-1.10000E-001	1.00162E-003	4	..........a	-327.66
	310	62.2	-1.39896E-001	-2.18958E-010	0.00000E+000	-1.40000E-001	1.00642E-003	4	..........a	-327.66
	313	62.8	-1.69949E-001	-2.35280E-010	0.00000E+000	-1.70000E-001	9.91522E-004	4	..........a	-327.66
	316	63.4	-2.00014E-001	-2.56133E-010	0.00000E+000	-2.00000E-001	9.99622E-004	4	..........a	-327.66
	319	64	-2.29911E-001	-2.83918E-010	0.00000E+000	-2.30000E-001	9.85922E-004	4	..........a	-327.66
	322	64.6	-2.59850E-001	-3.10270E-010	0.00000E+000	-2.60000E-001	1.01912E-003	4	..........a	-327.66
	325	65.2	-2.89920E-001	-3.47990E-010	0.00000E+000	-2.90000E-001	9.89822E-004	4	..........a	-327.66
	328	65.8	-3.19859E-001	-3.97137E-010	0.00000E+000	-3.20000E-001	1.01402E-003	4	..........a	-327.66
	331	66.4	-3.49891E-001	-4.55510E-010	0.00000E+000	-3.50000E-001	9.88022E-004	4	..........a	-327.66
	334	67	-3.79865E-001	-5.23333E-010	0.00000E+000	-3.80000E-001	1.00982E-003	4	..........a	-327.66
	337	67.6	-4.09889E-001	-6.02901E-010	0.00000E+000	-4.10000E-001	1.01132E-003	4	..........a	-327.66
	340	68.2	-4.39882E-001	-6.93138E-010	0.00000E+000	-4.40000E-001	1.00912E-003	4	..........a	-327.66
	343	68.8	-4.69810E-001	-7.93797E-010	0.00000E+000	-4.70000E-001	9.97922E-004	4	..........a	-327.66
	346	69.4	-4.99856E-001	-8.95337E-010	0.00000E+000	-5.00000E-001	9.90522E-004	4	..........a	-327.66
	349	70	-5.29854E-001	-1.00474E-009	0.00000E+000	-5.30000E-001	1.01452E-003	4	..........a	-327.66
	352	70.6	-5.59874E-001	-1.12823E-009	0.00000E+000	-5.60000E-001	1.00122E-003	4	..........a	-327.66
	355	71.2	-5.89863E-001	-1.26382E-009	0.00000E+000	-5.90000E-001	1.00852E-003	4	..........a	-327.66
	358	71.8	-5.79867E-001	-8.65384E-010	0.00000E+000	-5.80000E-001	1.02562E-003	4	..........a	-327.66
	361	72.4	-5.49919E-001	-5.94642E-010	0.00000E+000	-5.50000E-001	9.86722E-004	4	..........a	-327.66
[...]
	993	198.8	1.70154E-001	2.58887E-010	0.00000E+000	1.70000E-001	9.86622E-004	4	..........a	-327.66
	996	199.4	1.99994E-001	2.71793E-010	0.00000E+000	2.00000E-001	1.02902E-003	4	..........a	-327.66
	999	200	2.29944E-001	2.82575E-010	0.00000E+000	2.30000E-001	9.99822E-004	4	..........a	-327.66
	1002	200.6	2.59993E-001	2.92995E-010	0.00000E+000	2.60000E-001	1.00232E-003	4	..........a	-327.66
	1005	201.2	2.90006E-001	3.01841E-010	0.00000E+000	2.90000E-001	1.00342E-003	4	..........a	-327.66
	1008	201.8	3.19992E-001	3.08966E-010	0.00000E+000	3.20000E-001	9.91422E-004	4	..........a	-327.66
	1011	202.4	3.49951E-001	3.15189E-010	0.00000E+000	3.50000E-001	1.00232E-003	4	..........a	-327.66
	1014	203	3.80009E-001	3.21354E-010	0.00000E+000	3.80000E-001	1.02262E-003	4	..........a	-327.66
	1017	203.6	4.09950E-001	3.26799E-010	0.00000E+000	4.10000E-001	9.89922E-004	4	..........a	-327.66
	1020	204.2	4.39986E-001	3.33900E-010	0.00000E+000	4.40000E-001	1.00522E-003	4	..........a	-327.66
	1023	204.8	4.69959E-001	3.42219E-010	0.00000E+000	4.70000E-001	1.01572E-003	4	..........a	-327.66
	1026	205.4	5.00053E-001	3.52285E-010	0.00000E+000	5.00000E-001	1.01852E-003	4	..........a	-327.66
	1029	206	5.29982E-001	3.66819E-010	0.00000E+000	5.30000E-001	9.79922E-004	4	..........a	-327.66
	1032	206.6	5.59947E-001	3.84993E-010	0.00000E+000	5.60000E-001	1.00592E-003	4	..........a	-327.66
	1035	207.2	5.89942E-001	4.09360E-010	0.00000E+000	5.90000E-001	1.00822E-003	4	..........a	-327.66
	1038	207.8	6.20000E-001	4.43594E-010	0.00000E+000	6.20000E-001	1.00572E-003	4	..........a	-327.66
	1041	208.4	6.49934E-001	4.89342E-010	0.00000E+000	6.50000E-001	9.85322E-004	4	..........a	-327.66
	1044	209	6.79781E-001	5.50871E-010	0.00000E+000	6.80000E-001	9.96022E-004	4	..........a	-327.66
	1047	209.6	7.09882E-001	6.29161E-010	0.00000E+000	7.10000E-001	1.01532E-003	4	..........a	-327.66
	1050	210.2	7.40010E-001	7.24820E-010	0.00000E+000	7.40000E-001	9.96722E-004	4	..........a	-327.66
	1053	210.8	7.69905E-001	8.42589E-010	0.00000E+000	7.70000E-001	1.00232E-003	4	..........a	-327.66
	1056	211.4	7.99945E-001	9.84503E-010	0.00000E+000	8.00000E-001	1.01392E-003	4	..........a	-327.66
CURVE5	TABLE
	Pt	T	Vf	Im	Vu	Sig	Ach	IERange	Over	Temp
	#	s	V vs. Ref.	A	V	V	V	#	bits	deg C
	1057	211.6	7.89840E-001	6.69569E-010	0.00000E+000	7.90000E-001	1.00792E-003	4	..........a	-327.66
	1058	211.8	7.79980E-001	4.89385E-010	0.00000E+000	7.80000E-001	1.00912E-003	4	..........a	-327.66
	1059	212	7.69948E-001	3.77045E-010	0.00000E+000	7.70000E-001	9.82522E-004	4	..........a	-327.66
	1060	212.2	7.59895E-001	2.97992E-010	0.00000E+000	7.60000E-001	9.96122E-004	4	..........a	-327.66
	1061	212.4	7.49953E-001	2.38233E-010	0.00000E+000	7.50000E-001	1.00342E-003	4	..........a	-327.66
	1062	212.6	7.40005E-001	1.91790E-010	0.00000E+000	7.40000E-001	1.01462E-003	4	..........a	-327.66
	1063	212.8	7.29938E-001	1.59227E-010	0.00000E+000	7.30000E-001	9.95222E-004	4	..........a	-327.66
	1064	213	7.19894E-001	1.25280E-010	0.00000E+000	7.20000E-001	9.81722E-004	4	..........a	-327.66
	1065	213.2	7.09930E-001	9.91656E-011	0.00000E+000	7.10000E-001	1.01212E-003	4	..........a	-327.66
	1066	213.4	6.99991E-001	7.89158E-011	0.00000E+000	7.00000E-001	1.02842E-003	4	..........a	-327.66
	1067	213.6	6.89911E-001	6.00501E-011	0.00000E+000	6.90000E-001	1.00192E-003	4	..........a	-327.66
	1068	213.8	6.79809E-001	4.47475E-011	0.00000E+000	6.80000E-001	9.93322E-004	4	..........a	-327.66
	1069	214	6.69916E-001	3.01150E-011	0.00000E+000	6.70000E-001	1.03762E-003	4	..........a	-327.66
	1070	214.2	6.60015E-001	2.04056E-011	0.00000E+000	6.60000E-001	1.01642E-003	4	..........a	-327.66
	1071	214.4	6.49932E-001	7.88210E-012	0.00000E+000	6.50000E-001	9.88522E-004	4	..........a	-327.66
	1072	214.6	6.39904E-001	-1.64126E-012	0.00000E+000	6.40000E-001	9.99222E-004	4	..........a	-327.66
	1073	214.8	6.29926E-001	-1.11076E-011	0.00000E+000	6.30000E-001	1.02472E-003	4	..........a	-327.66
	1074	215	6.19999E-001	-2.01490E-011	0.00000E+000	6.20000E-001	9.99922E-004	4	..........a	-327.66
	1075	215.2	6.09986E-001	-2.84203E-011	0.00000E+000	6.10000E-001	1.00282E-003	4	..........a	-327.66
	1076	215.4	5.99982E-001	-3.57996E-011	0.00000E+000	6.00000E-001	9.81122E-004	4	..........a	-327.66
	1077	215.6	5.89952E-001	-4.10058E-011	0.00000E+000	5.90000E-001	1.00122E-003	4	..........a	-327.66
	1078	215.8	5.80032E-001	-4.69160E-011	0.00000E+000	5.80000E-001	9.96822E-004	4	..........a	-327.66
	1079	216	5.69966E-001	-5.37163E-011	0.00000E+000	5.70000E-001	1.01052E-003	4	..........a	-327.66
	1080	216.2	5.59986E-001	-5.95505E-011	0.00000E+000	5.60000E-001	9.95922E-004	4	..........a	-327.66
	1081	216.4	5.49973E-001	-6.42707E-011	0.00000E+000	5.50000E-001	1.02762E-003	4	..........a	-327.66
	1082	216.6	5.40020E-001	-6.87618E-011	0.00000E+000	5.40000E-001	1.02742E-003	4	..........a	-327.66
	1083	216.8	5.29959E-001	-7.32220E-011	0.00000E+000	5.30000E-001	9.98022E-004	4	..........a	-327.66
	1084	217	5.19979E-001	-7.72382E-011	0.00000E+000	5.20000E-001	9.94122E-004	4	..........a	-327.66
	1085	217.2	5.09922E-001	-8.16963E-011	0.00000E+000	5.10000E-001	9.97622E-004	4	..........a	-327.66
	1086	217.4	5.00054E-001	-8.51805E-011	0.00000E+000	5.00000E-001	1.01362E-003	4	..........a	-327.66
	1087	217.6	4.89967E-001	-8.92106E-011	0.00000E+000	4.90000E-001	9.93322E-004	4	..........a	-327.66
	1088	217.8	4.79963E-001	-9.37008E-011	0.00000E+000	4.80000E-001	1.01622E-003	4	..........a	-327.66
	1089	218	4.69962E-001	-9.70159E-011	0.00000E+000	4.70000E-001	1.00532E-003	4	..........a	-327.66
	1090	218.2	4.60014E-001	-1.00644E-010	0.00000E+000	4.60000E-001	1.01362E-003	4	..........a	-327.66
	1091	218.4	4.49969E-001	-1.04221E-010	0.00000E+000	4.50000E-001	9.99322E-004	4	..........a	-327.66
	1092	218.6	4.39986E-001	-1.07057E-010	0.00000E+000	4.40000E-001	1.01402E-003	4	..........a	-327.66
	1093	218.8	4.29948E-001	-1.09942E-010	0.00000E+000	4.30000E-001	1.01792E-003	4	..........a	-327.66
	1094	219	4.20024E-001	-1.12303E-010	0.00000E+000	4.20000E-001	1.02022E-003	4	..........a	-327.66
	1095	219.2	4.09954E-001	-1.16045E-010	0.00000E+000	4.10000E-001	1.00842E-003	4	..........a	-327.66
	1096	219.4	4.00064E-001	-1.17801E-010	0.00000E+000	4.00000E-001	9.92122E-004	4	..........a	-327.66
	1097	219.6	3.89980E-001	-1.20882E-010	0.00000E+000	3.90000E-001	1.02032E-003	4	..........a	-327.66
	1098	219.8	3.80016E-001	-1.23251E-010	0.00000E+000	3.80000E-001	1.02202E-003	4	..........a	-327.66
	1099	220	3.70008E-001	-1.25274E-010	0.00000E+000	3.70000E-001	9.90322E-004	4	..........a	-327.66
	1100	220.2	3.59944E-001	-1.28564E-010	0.00000E+000	3.60000E-001	9.94422E-004	4	..........a	-327.66
	1101	220.4	3.49955E-001	-1.30633E-010	0.00000E+000	3.50000E-001	9.98722E-004	4	..........a	-327.66
	1102	220.6	3.40043E-001	-1.33587E-010	0.00000E+000	3.40000E-001	9.95222E-004	4	..........a	-327.66
	1103	220.8	3.29998E-001	-1.36166E-010	0.00000E+000	3.30000E-001	1.00792E-003	4	..........a	-327.66
	1104	221	3.19909E-001	-1.38503E-010	0.00000E+000	3.20000E-001	1.01912E-003	4	..........a	-327.66
	1105	221.2	3.09975E-001	-1.40442E-010	0.00000E+000	3.10000E-001	1.01492E-003	4	..........a	-327.66
	1106	221.4	2.99998E-001	-1.42732E-010	0.00000E+000	3.00000E-001	9.97422E-004	4	..........a	-327.66
	1107	221.6	2.89995E-001	-1.45193E-010	0.00000E+000	2.90000E-001	9.93422E-004	4	..........a	-327.66
	1108	221.8	2.79981E-001	-1.47542E-010	0.00000E+000	2.80000E-001	1.02432E-003	4	..........a	-327.66
	1109	222	2.69973E-001	-1.49703E-010	0.00000E+000	2.70000E-001	1.01192E-003	4	..........a	-327.66
	1110	222.2	2.60014E-001	-1.51555E-010	0.00000E+000	2.60000E-001	1.03682E-003	4	..........a	-327.66
	1111	222.4	2.50063E-001	-1.53367E-010	0.00000E+000	2.50000E-001	9.97722E-004	4	..........a	-327.66
	1112	222.6	2.40019E-001	-1.54897E-010	0.00000E+000	2.40000E-001	1.02282E-003	4	..........a	-327.66
	1113	222.8	2.29976E-001	-1.56278E-010	0.00000E+000	2.30000E-001	1.02692E-003	4	..........a	-327.66
	1114	223	2.20018E-001	-1.57949E-010	0.00000E+000	2.20000E-001	1.01652E-003	4	..........a	-327.66
	1115	223.2	2.10003E-001	-1.58749E-010	0.00000E+000	2.10000E-001	9.97922E-004	4	..........a	-327.66
	1116	223.4	2.00044E-001	-1.59406E-010	0.00000E+000	2.00000E-001	1.00642E-003	4	..........a	-327.66
	1117	223.6	1.90043E-001	-1.60307E-010	0.00000E+000	1.90000E-001	1.01712E-003	4	..........a	-327.66
	1118	223.8	1.80051E-001	-1.61205E-010	0.00000E+000	1.80000E-001	1.02422E-003	4	..........a	-327.66
	1119	224	1.70082E-001	-1.61640E-010	0.00000E+000	1.70000E-001	1.01492E-003	4	..........a	-327.66
	1120	224.2	1.60038E-001	-1.62416E-010	0.00000E+000	1.60000E-001	1.01232E-003	4	..........a	-327.66