File: data/raw/batch_data/20240321_T_GM0016_HL03_E05_CV50k.DTA
EXPLAIN
TAG	CV
TITLE	LABEL	Cyclic Voltammetry	Test &Identifier
DATE	LABEL	3/21/2024	Date
TIME	LABEL	17:31:34	Time
NOTES	NOTES	1	&Notes...

PSTAT	PSTAT	REF600P-43058	Potentiostat
VINIT	POTEN	0.00000E+000	T	Initial &E (V)
VLIMIT1	POTEN	-6.00000E-001	F	Scan Limit &1 (V)
VLIMIT2	POTEN	8.00000E-001	F	Scan Limit &2 (V)
VFINAL	POTEN	0.00000E+000	T	Final &E (V)
SCANRATE	QUANT	4.99999E+004	&Scan Rate (mV/s)
STEPSIZE	QUANT	1.00000E+001	St&ep Size (mV)
CYCLES	IQUANT	10	C&ycles (#)
IMODE	SELECTOR	1	I/E Range &Mode
IRANGE	QUANT	1.00000E-005	&Max Current (mA)
AREA	QUANT	1.00000E+000	Electrode &Area (cm^2)
ELECTRODETYPE	SELECTOR	0	Electrode Type
STRIPPING	TOGGLE	F	Used for Stripping
POLARITY	TOGGLE	F	Signal Polarity
CONDIT	TWOPARAM	F	1.50000E+001	0.00000E+000	Conditionin&g	Time(s)	E(V)
DELAY	TWOPARAM	T	1.00000E+001	0.00000E+000	Init. De&lay	Time(s)	Stab.(mV/s)
EQDELAY	QUANT	1.00000E+001	Equil. &Time (s)
IRCOMP	SELECTOR	0	IRCom&p
PFCOR	QUANT	5.00000E+001	PF Corr. (ohm)
SAMPLINGMODE	SELECTOR	1	Sampling &Mode
OCVCURVE	TABLE	39
	Pt	T	Vf	Vm	Ach	Over	Temp
	#	s	V vs. Ref.	V	V	bits	deg C
	0	0.258333	3.98101E-001	3.98101E-001	2.23822E-004	..........a	-327.66
	1	0.516667	3.98104E-001	3.98262E-001	2.27156E-004	..........a	-327.66
	2	0.775	3.98122E-001	3.98323E-001	2.31156E-004	..........a	-327.66
	3	1.03333	3.98164E-001	3.98367E-001	2.19556E-004	..........a	-327.66
	4	1.29167	3.98228E-001	3.98472E-001	2.18889E-004	..........a	-327.66
	5	1.55	3.98308E-001	3.98810E-001	2.26956E-004	..........a	-327.66
	6	1.80833	3.98416E-001	3.99170E-001	2.44222E-004	..........a	-327.66
	7	2.06667	3.98583E-001	3.99341E-001	2.40489E-004	..........a	-327.66
	8	2.325	3.98808E-001	3.99427E-001	2.32156E-004	..........a	-327.66
	9	2.58333	3.99046E-001	3.99545E-001	2.28556E-004	..........a	-327.66
	10	2.84167	3.99254E-001	3.99727E-001	2.27022E-004	..........a	-327.66
	11	3.1	3.99422E-001	3.99904E-001	2.29222E-004	..........a	-327.66
	12	3.35833	3.99572E-001	4.00059E-001	2.44022E-004	..........a	-327.66
	13	3.61667	3.99724E-001	4.00184E-001	2.44222E-004	..........a	-327.66
	14	3.875	3.99879E-001	4.00322E-001	2.26622E-004	..........a	-327.66
	15	4.13333	4.00033E-001	4.00628E-001	2.43956E-004	..........a	-327.66
	16	4.39167	4.00194E-001	4.00798E-001	2.41622E-004	..........a	-327.66
	17	4.65	4.00371E-001	4.00810E-001	2.38756E-004	..........a	-327.66
	18	4.90833	4.00549E-001	4.00912E-001	2.32489E-004	..........a	-327.66
	19	5.16667	4.00702E-001	4.01075E-001	2.26222E-004	..........a	-327.66
	20	5.425	4.00827E-001	4.01213E-001	2.33022E-004	..........a	-327.66
	21	5.68333	4.00944E-001	4.01389E-001	2.33822E-004	..........a	-327.66
	22	5.94167	4.01073E-001	4.01550E-001	2.45089E-004	..........a	-327.66
	23	6.2	4.01217E-001	4.01709E-001	2.34889E-004	..........a	-327.66
	24	6.45833	4.01372E-001	4.01852E-001	2.29956E-004	..........a	-327.66
	25	6.71667	4.01531E-001	4.01994E-001	2.30489E-004	..........a	-327.66
	26	6.975	4.01690E-001	4.02274E-001	2.38889E-004	..........a	-327.66
	27	7.23333	4.01854E-001	4.02421E-001	2.45622E-004	..........a	-327.66
	28	7.49167	4.02028E-001	4.02475E-001	2.39156E-004	..........a	-327.66
	29	7.75	4.02201E-001	4.02587E-001	2.38889E-004	..........a	-327.66
	30	8.00833	4.02353E-001	4.02722E-001	2.27089E-004	..........a	-327.66
	31	8.26667	4.02481E-001	4.02859E-001	2.27556E-004	..........a	-327.66
	32	8.525	4.02600E-001	4.03063E-001	2.35622E-004	..........a	-327.66
	33	8.78333	4.02729E-001	4.03210E-001	2.33689E-004	..........a	-327.66
	34	9.04167	4.02874E-001	4.03365E-001	2.40956E-004	..........a	-327.66
	35	9.3	4.03031E-001	4.03496E-001	2.28956E-004	..........a	-327.66
	36	9.5583	4.03191E-001	4.03723E-001	2.30889E-004	..........a	-327.66
	37	9.8167	4.03353E-001	4.03969E-001	2.30622E-004	..........a	-327.66
	38	10.075	4.03526E-001	4.04031E-001	2.40356E-004	..........a	-327.66
EOC	QUANT	0.4035264	Open Circuit (V)
PSTATMODEL	IQUANT	7	Pstat Model
PSTATSECTION	LABEL	REF600P-43058	Pstat Section
PSTATSERIALNO	LABEL	43058	Pstat Serial Number
CTRLMODE	IQUANT	1	Control Mode
ELECTROMETER	IQUANT	0	RE=0 or CS=1
IESTAB	IQUANT	2	I/E Stability
CASPEED	IQUANT	4	Control Amp Speed
CONVENTION	IQUANT	1	Current Convention
ICHRANGE	IQUANT	2	Ich Range
ICHRANGEMODE	TOGGLE	F	Ich Auto Range
ICHOFFSETENABLE	TOGGLE	F	Ich Offset Enable
ICHOFFSET	QUANT	0	Ich Offset (V)
ICHFILTER	IQUANT	1	Ich Filter
VCHRANGE	IQUANT	2	Vch Range
VCHRANGEMODE	TOGGLE	F	Vch Auto Range
VCHOFFSETENABLE	TOGGLE	F	Vch Offset Enable
VCHOFFSET	QUANT	0	Vch Offset (V)
VCHFILTER	IQUANT	1	Vch Filter
ACHRANGE	IQUANT	2	Ach Range
ACHOFFSETENABLE	TOGGLE	F	Ach Offset Enable
ACHOFFSET	QUANT	0	Ach Offset (V)
ACHFILTER	IQUANT	1	Ach Filter
IERANGELOWERLIMIT	IQUANT	1	I/E Range Lower Limit
IERANGEMODE	TOGGLE	F	I/E AutoRange
IERANGE	IQUANT	4	I/E Range
POSFEEDENABLE	TOGGLE	F	Positive Feedback IR Comp
POSFEEDRESISTANCE	QUANT	0	Positive Feedback Resistance (ohm)
ACHSELECT	IQUANT	4	Ach Select
SENSECABLEID	IQUANT	7	Sense Cable ID
PWRCABLEID	IQUANT	7	Power Cable ID
DCCALDATE	LABEL	12/18/2023	DC Calibration Date
ACCALDATE	LABEL	12/18/2023	AC Calibration Date
THERMOSELECT	IQUANT	1	Thermo Select
FRAMEWORKVERSION	LABEL	7.8.4	Framework Version
INSTRUMENTVERSION	LABEL	4.42	Instrument Version
CURVE1	TABLE
	Pt	T	Vf	Im	Vu	Sig	Ach	IERange	Over	Temp
	#	s	V vs. Ref.	A	V	V	V	#	bits	deg C
	0	0.0002	4.03570E-001	2.27885E-011	0.00000E+000	4.03550E-001	8.00223E-005	4	..........a	-327.66
	3	0.0008	3.73470E-001	-8.42156E-011	0.00000E+000	3.73550E-001	8.00223E-005	4	..........a	-327.66
	6	0.0014	3.43570E-001	-2.07220E-010	0.00000E+000	3.43550E-001	-4.19978E-004	4	..........a	-327.66
	9	0.002	3.13570E-001	-3.46226E-010	0.00000E+000	3.13550E-001	8.00223E-005	4	..........a	-327.66
	12	0.0026	2.83670E-001	-5.00232E-010	0.00000E+000	2.83550E-001	8.00223E-005	4	..........a	-327.66
	15	0.0032	2.53570E-001	-6.64238E-010	0.00000E+000	2.53550E-001	8.00223E-005	4	..........a	-327.66
	18	0.0038	2.23570E-001	-8.45245E-010	0.00000E+000	2.23550E-001	8.00223E-005	4	..........a	-327.66
	21	0.0044	1.93770E-001	-1.04725E-009	0.00000E+000	1.93550E-001	8.00223E-005	4	..........a	-327.66
	24	0.005	1.63670E-001	-1.26726E-009	0.00000E+000	1.63550E-001	8.00223E-005	4	..........a	-327.66
	27	0.0056	1.33670E-001	-1.51027E-009	0.00000E+000	1.33550E-001	8.00223E-005	4	..........a	-327.66
	30	0.0062	1.03570E-001	-1.77728E-009	0.00000E+000	1.03550E-001	8.00223E-005	4	..........a	-327.66
	33	0.0068	7.34695E-002	-2.06829E-009	0.00000E+000	7.35500E-002	8.00223E-005	4	..........a	-327.66
	36	0.0074	4.36695E-002	-2.38630E-009	0.00000E+000	4.35500E-002	8.00223E-005	4	..........a	-327.66
	39	0.008	1.36695E-002	-2.73232E-009	0.00000E+000	1.35500E-002	8.00223E-005	4	..........a	-327.66
	42	0.0086	-1.63805E-002	-3.10033E-009	0.00000E+000	-1.64500E-002	8.00223E-005	4	..........a	-327.66
	45	0.0092	-4.63305E-002	-3.49835E-009	0.00000E+000	-4.64500E-002	8.00223E-005	4	..........a	-327.66
	48	0.0098	-7.64305E-002	-3.90736E-009	0.00000E+000	-7.64500E-002	8.00223E-005	4	..........a	-327.66
	51	0.0104	-1.06430E-001	-4.33638E-009	0.00000E+000	-1.06450E-001	8.00223E-005	4	..........a	-327.66
	54	0.011	-1.36230E-001	-4.78340E-009	0.00000E+000	-1.36450E-001	8.00223E-005	4	..........a	-327.66
	57	0.0116	-1.66430E-001	-5.23641E-009	0.00000E+000	-1.66450E-001	8.00223E-005	4	..........a	-327.66
	60	0.0122	-1.96430E-001	-5.69843E-009	0.00000E+000	-1.96450E-001	8.00223E-005	4	..........a	-327.66
	63	0.0128	-2.26230E-001	-6.16645E-009	0.00000E+000	-2.26450E-001	8.00223E-005	4	..........a	-327.66
	66	0.0134	-2.56430E-001	-6.63047E-009	0.00000E+000	-2.56450E-001	8.00223E-005	4	..........a	-327.66
	69	0.014	-2.86230E-001	-7.10049E-009	0.00000E+000	-2.86450E-001	8.00223E-005	4	..........a	-327.66
	72	0.0146	-3.16330E-001	-7.56450E-009	0.00000E+000	-3.16450E-001	8.00223E-005	4	..........a	-327.66
	75	0.0152	-3.46330E-001	-8.02652E-009	0.00000E+000	-3.46450E-001	8.00223E-005	4	..........a	-327.66
	78	0.0158	-3.76330E-001	-8.49254E-009	0.00000E+000	-3.76450E-001	8.00223E-005	4	..........a	-327.66
	81	0.0164	-4.06330E-001	-8.94656E-009	0.00000E+000	-4.06450E-001	8.00223E-005	4	..........a	-327.66
	84	0.017	-4.36330E-001	-9.39857E-009	0.00000E+000	-4.36450E-001	8.00223E-005	4	..........a	-327.66
	87	0.0176	-4.66130E-001	-9.85159E-009	0.00000E+000	-4.66450E-001	8.00223E-005	4	..........a	-327.66
	90	0.0182	-4.96330E-001	-1.03046E-008	0.00000E+000	-4.96450E-001	8.00223E-005	4	..........a	-327.66
	93	0.0188	-5.26330E-001	-1.07666E-008	0.00000E+000	-5.26450E-001	8.00223E-005	4	..........a	-327.66
	96	0.0194	-5.56331E-001	-1.12386E-008	0.00000E+000	-5.56450E-001	8.00223E-005	4	..........a	-327.66
	99	0.02	-5.86330E-001	-1.17237E-008	0.00000E+000	-5.86450E-001	8.00223E-005	4	..........a	-327.66
	102	0.0206	-5.76330E-001	-1.19717E-008	0.00000E+000	-5.76450E-001	8.00223E-005	4	..........a	-327.66
	105	0.0212	-5.46230E-001	-1.19747E-008	0.00000E+000	-5.46450E-001	8.00223E-005	4	..........a	-327.66
	108	0.0218	-5.16330E-001	-1.19017E-008	0.00000E+000	-5.16450E-001	8.00223E-005	4	..........a	-327.66
	111	0.0224	-4.86330E-001	-1.17847E-008	0.00000E+000	-4.86450E-001	8.00223E-005	4	..........a	-327.66
	114	0.023	-4.56430E-001	-1.16377E-008	0.00000E+000	-4.56450E-001	8.00223E-005	4	..........a	-327.66
	117	0.0236	-4.26230E-001	-1.14647E-008	0.00000E+000	-4.26450E-001	8.00223E-005	4	..........a	-327.66
	120	0.0242	-3.96430E-001	-1.12796E-008	0.00000E+000	-3.96450E-001	8.00223E-005	4	..........a	-327.66
	123	0.0248	-3.66330E-001	-1.10786E-008	0.00000E+000	-3.66450E-001	8.00223E-005	4	..........a	-327.66
	126	0.0254	-3.36430E-001	-1.08656E-008	0.00000E+000	-3.36450E-001	8.00223E-005	4	..........a	-327.66
	129	0.026	-3.06230E-001	-1.06476E-008	0.00000E+000	-3.06450E-001	8.00223E-005	4	..........a	-327.66
	132	0.0266	-2.76330E-001	-1.04176E-008	0.00000E+000	-2.76450E-001	8.00223E-005	4	..........a	-327.66
	135	0.0272	-2.46330E-001	-1.01866E-008	0.00000E+000	-2.46450E-001	8.00223E-005	4	..........a	-327.66
	138	0.0278	-2.16330E-001	-9.94559E-009	0.00000E+000	-2.16450E-001	8.00223E-005	4	..........a	-327.66
	141	0.0284	-1.86130E-001	-9.69859E-009	0.00000E+000	-1.86450E-001	8.00223E-005	4	..........a	-327.66
	144	0.029	-1.56430E-001	-9.45158E-009	0.00000E+000	-1.56450E-001	8.00223E-005	4	..........a	-327.66
	147	0.0296	-1.26230E-001	-9.19457E-009	0.00000E+000	-1.26450E-001	8.00223E-005	4	..........a	-327.66
	150	0.0302	-9.64305E-002	-8.93656E-009	0.00000E+000	-9.64500E-002	8.00223E-005	4	..........a	-327.66
	153	0.0308	-6.63805E-002	-8.67055E-009	0.00000E+000	-6.64500E-002	8.00223E-005	4	..........a	-327.66
	156	0.0314	-3.63305E-002	-8.40254E-009	0.00000E+000	-3.64500E-002	-3.19978E-004	4	..........a	-327.66
	159	0.032	-6.33048E-003	-8.12852E-009	0.00000E+000	-6.45000E-003	8.00223E-005	4	..........a	-327.66
	162	0.0326	2.36695E-002	-7.84951E-009	0.00000E+000	2.35500E-002	8.00223E-005	4	..........a	-327.66
	165	0.0332	5.37695E-002	-7.56250E-009	0.00000E+000	5.35500E-002	8.00223E-005	4	..........a	-327.66
	168	0.0338	8.36695E-002	-7.27149E-009	0.00000E+000	8.35500E-002	-2.19978E-004	4	..........a	-327.66
	171	0.0344	1.13670E-001	-6.97248E-009	0.00000E+000	1.13550E-001	-3.19978E-004	4	..........a	-327.66
	174	0.035	1.43670E-001	-6.67147E-009	0.00000E+000	1.43550E-001	8.00223E-005	4	..........a	-327.66
	177	0.0356	1.73670E-001	-6.35346E-009	0.00000E+000	1.73550E-001	8.00223E-005	4	..........a	-327.66
	180	0.0362	2.03420E-001	-6.02544E-009	0.00000E+000	2.03550E-001	8.00223E-005	4	..........a	-327.66
	183	0.0368	2.33570E-001	-5.69443E-009	0.00000E+000	2.33550E-001	8.00223E-005	4	..........a	-327.66
	186	0.0374	2.63570E-001	-5.35142E-009	0.00000E+000	2.63550E-001	8.00223E-005	4	..........a	-327.66
	189	0.038	2.93570E-001	-4.99240E-009	0.00000E+000	2.93550E-001	8.00223E-005	4	..........a	-327.66
	192	0.0386	3.23470E-001	-4.62439E-009	0.00000E+000	3.23550E-001	8.00223E-005	4	..........a	-327.66
	195	0.0392	3.53470E-001	-4.24438E-009	0.00000E+000	3.53550E-001	8.00223E-005	4	..........a	-327.66
	198	0.0398	3.83670E-001	-3.85236E-009	0.00000E+000	3.83550E-001	8.00223E-005	4	..........a	-327.66
	201	0.0404	4.13570E-001	-3.45235E-009	0.00000E+000	4.13550E-001	8.00223E-005	4	..........a	-327.66
	204	0.041	4.43670E-001	-3.03633E-009	0.00000E+000	4.43550E-001	8.00223E-005	4	..........a	-327.66
	207	0.0416	4.73570E-001	-2.61331E-009	0.00000E+000	4.73550E-001	8.00223E-005	4	..........a	-327.66
	210	0.0422	5.03469E-001	-2.17830E-009	0.00000E+000	5.03550E-001	8.00223E-005	4	..........a	-327.66
	213	0.0428	5.33669E-001	-1.72428E-009	0.00000E+000	5.33550E-001	8.00223E-005	4	..........a	-327.66
	216	0.0434	5.63419E-001	-1.26326E-009	0.00000E+000	5.63550E-001	8.00223E-005	4	..........a	-327.66
	219	0.044	5.93569E-001	-7.83242E-010	0.00000E+000	5.93550E-001	8.00223E-005	4	..........a	-327.66
	222	0.0446	6.23569E-001	-2.90224E-010	0.00000E+000	6.23550E-001	8.00223E-005	4	..........a	-327.66
	225	0.0452	6.53369E-001	2.27796E-010	0.00000E+000	6.53550E-001	8.00223E-005	4	..........a	-327.66
	228	0.0458	6.83619E-001	7.63817E-010	0.00000E+000	6.83550E-001	8.00223E-005	4	..........a	-327.66
	231	0.0464	7.13419E-001	1.31684E-009	0.00000E+000	7.13550E-001	8.00223E-005	4	..........a	-327.66
	234	0.047	7.43569E-001	1.89786E-009	0.00000E+000	7.43550E-001	8.00223E-005	4	..........a	-327.66
	237	0.0476	7.73369E-001	2.50488E-009	0.00000E+000	7.73550E-001	8.00223E-005	4	..........a	-327.66
	240	0.0482	8.03569E-001	3.14191E-009	0.00000E+000	8.03550E-001	8.00223E-005	4	..........a	-327.66
CURVE2	TABLE
	Pt	T	Vf	Im	Vu	Sig	Ach	IERange	Over	Temp
	#	s	V vs. Ref.	A	V	V	V	#	bits	deg C
	241	0.0484	7.90069E-001	3.23791E-009	0.00000E+000	7.90000E-001	8.00223E-005	4	..........a	-327.66
	244	0.049	7.59869E-001	3.40292E-009	0.00000E+000	7.60000E-001	8.00223E-005	4	..........a	-327.66
	247	0.0496	7.29769E-001	3.44292E-009	0.00000E+000	7.30000E-001	-2.19978E-004	4	..........a	-327.66
	250	0.0502	6.99969E-001	3.40592E-009	0.00000E+000	7.00000E-001	8.00223E-005	4	..........a	-327.66
	253	0.0508	6.69919E-001	3.32692E-009	0.00000E+000	6.70000E-001	8.00223E-005	4	..........a	-327.66
	256	0.0514	6.39870E-001	3.20891E-009	0.00000E+000	6.40000E-001	8.00223E-005	4	..........a	-327.66
	259	0.052	6.09819E-001	3.07091E-009	0.00000E+000	6.10000E-001	8.00223E-005	4	..........a	-327.66
	262	0.0526	5.79969E-001	2.91690E-009	0.00000E+000	5.80000E-001	8.00223E-005	4	..........a	-327.66
	265	0.0532	5.49969E-001	2.74589E-009	0.00000E+000	5.50000E-001	8.00223E-005	4	..........a	-327.66
	268	0.0538	5.19969E-001	2.55389E-009	0.00000E+000	5.20000E-001	8.00223E-005	4	..........a	-327.66
	271	0.0544	4.90070E-001	2.35288E-009	0.00000E+000	4.90000E-001	8.00223E-005	4	..........a	-327.66
	274	0.055	4.59970E-001	2.13787E-009	0.00000E+000	4.60000E-001	8.00223E-005	4	..........a	-327.66
	277	0.0556	4.30070E-001	1.90386E-009	0.00000E+000	4.30000E-001	8.00223E-005	4	..........a	-327.66
	280	0.0562	4.00070E-001	1.66385E-009	0.00000E+000	4.00000E-001	8.00223E-005	4	..........a	-327.66
	283	0.0568	3.69970E-001	1.40184E-009	0.00000E+000	3.70000E-001	8.00223E-005	4	..........a	-327.66
	286	0.0574	3.40070E-001	1.11583E-009	0.00000E+000	3.40000E-001	8.00223E-005	4	..........a	-327.66
	289	0.058	3.09970E-001	8.26819E-010	0.00000E+000	3.10000E-001	8.00223E-005	4	..........a	-327.66
	292	0.0586	2.79920E-001	5.10807E-010	0.00000E+000	2.80000E-001	8.00223E-005	4	..........a	-327.66
	295	0.0592	2.49970E-001	1.76794E-010	0.00000E+000	2.50000E-001	8.00223E-005	4	..........a	-327.66
	298	0.0598	2.19870E-001	-1.79219E-010	0.00000E+000	2.20000E-001	8.00223E-005	4	..........a	-327.66
	301	0.0604	1.90120E-001	-5.53234E-010	0.00000E+000	1.90000E-001	8.00223E-005	4	..........a	-327.66
	304	0.061	1.60070E-001	-9.42249E-010	0.00000E+000	1.60000E-001	8.00223E-005	4	..........a	-327.66
	307	0.0616	1.30170E-001	-1.33826E-009	0.00000E+000	1.30000E-001	8.00223E-005	4	..........a	-327.66
	310	0.0622	1.00270E-001	-1.74528E-009	0.00000E+000	1.00000E-001	8.00223E-005	4	..........a	-327.66
	313	0.0628	7.00695E-002	-2.15630E-009	0.00000E+000	7.00000E-002	8.00223E-005	4	..........a	-327.66
	316	0.0634	4.00695E-002	-2.57131E-009	0.00000E+000	4.00000E-002	8.00223E-005	4	..........a	-327.66
	319	0.064	1.01695E-002	-2.96733E-009	0.00000E+000	1.00000E-002	8.00223E-005	4	..........a	-327.66
	322	0.0646	-1.99305E-002	-3.36734E-009	0.00000E+000	-2.00000E-002	8.00223E-005	4	..........a	-327.66
	325	0.0652	-4.99305E-002	-3.75236E-009	0.00000E+000	-5.00000E-002	8.00223E-005	4	..........a	-327.66
	328	0.0658	-8.00305E-002	-4.13037E-009	0.00000E+000	-8.00000E-002	8.00223E-005	4	..........a	-327.66
	331	0.0664	-1.09930E-001	-4.49239E-009	0.00000E+000	-1.10000E-001	8.00223E-005	4	..........a	-327.66
	334	0.067	-1.40080E-001	-4.84940E-009	0.00000E+000	-1.40000E-001	8.00223E-005	4	..........a	-327.66
	337	0.0676	-1.69930E-001	-5.19241E-009	0.00000E+000	-1.70000E-001	8.00223E-005	4	..........a	-327.66
	340	0.0682	-2.00030E-001	-5.53043E-009	0.00000E+000	-2.00000E-001	8.00223E-005	4	..........a	-327.66
	343	0.0688	-2.30030E-001	-5.85844E-009	0.00000E+000	-2.30000E-001	8.00223E-005	4	..........a	-327.66
	346	0.0694	-2.59730E-001	-6.18245E-009	0.00000E+000	-2.60000E-001	8.00223E-005	4	..........a	-327.66
	349	0.07	-2.89930E-001	-6.50246E-009	0.00000E+000	-2.90000E-001	8.00223E-005	4	..........a	-327.66
	352	0.0706	-3.19830E-001	-6.82247E-009	0.00000E+000	-3.20000E-001	8.00223E-005	4	..........a	-327.66
[...]
	2628	0.5258	-5.19930E-001	-6.88748E-009	0.00000E+000	-5.20000E-001	8.00223E-005	4	..........a	-327.66
	2631	0.5264	-4.89930E-001	-6.76647E-009	0.00000E+000	-4.90000E-001	8.00223E-005	4	..........a	-327.66
	2634	0.527	-4.59830E-001	-6.62347E-009	0.00000E+000	-4.60000E-001	8.00223E-005	4	..........a	-327.66
	2637	0.5276	-4.29930E-001	-6.46746E-009	0.00000E+000	-4.30000E-001	-3.19978E-004	4	..........a	-327.66
	2640	0.5282	-3.99930E-001	-6.29445E-009	0.00000E+000	-4.00000E-001	8.00223E-005	4	..........a	-327.66
	2643	0.5288	-3.69930E-001	-6.11245E-009	0.00000E+000	-3.70000E-001	8.00223E-005	4	..........a	-327.66
	2646	0.5294	-3.39730E-001	-5.92244E-009	0.00000E+000	-3.40000E-001	8.00223E-005	4	..........a	-327.66
	2649	0.53	-3.09930E-001	-5.72643E-009	0.00000E+000	-3.10000E-001	8.00223E-005	4	..........a	-327.66
	2652	0.5306	-2.80030E-001	-5.52242E-009	0.00000E+000	-2.80000E-001	8.00223E-005	4	..........a	-327.66
	2655	0.5312	-2.49830E-001	-5.31542E-009	0.00000E+000	-2.50000E-001	8.00223E-005	4	..........a	-327.66
	2658	0.5318	-2.19830E-001	-5.09741E-009	0.00000E+000	-2.20000E-001	8.00223E-005	4	..........a	-327.66
	2661	0.5324	-1.90330E-001	-4.88740E-009	0.00000E+000	-1.90000E-001	8.00223E-005	4	..........a	-327.66
	2664	0.533	-1.59930E-001	-4.66239E-009	0.00000E+000	-1.60000E-001	8.00223E-005	4	..........a	-327.66
	2667	0.5336	-1.29930E-001	-4.43838E-009	0.00000E+000	-1.30000E-001	8.00223E-005	4	..........a	-327.66
	2670	0.5342	-9.99305E-002	-4.20637E-009	0.00000E+000	-1.00000E-001	8.00223E-005	4	..........a	-327.66
	2673	0.5348	-6.99305E-002	-3.97437E-009	0.00000E+000	-7.00000E-002	8.00223E-005	4	..........a	-327.66
	2676	0.5354	-4.00305E-002	-3.73136E-009	0.00000E+000	-4.00000E-002	8.00223E-005	4	..........a	-327.66
	2679	0.536	-1.00305E-002	-3.48635E-009	0.00000E+000	-1.00000E-002	8.00223E-005	4	..........a	-327.66
	2682	0.5366	2.01695E-002	-3.23934E-009	0.00000E+000	2.00000E-002	8.00223E-005	4	..........a	-327.66
	2685	0.5372	4.99695E-002	-2.98433E-009	0.00000E+000	5.00000E-002	-3.19978E-004	4	..........a	-327.66
	2688	0.5378	7.99695E-002	-2.72932E-009	0.00000E+000	8.00000E-002	8.00223E-005	4	..........a	-327.66
	2691	0.5384	1.09970E-001	-2.46631E-009	0.00000E+000	1.10000E-001	8.00223E-005	4	..........a	-327.66
	2694	0.539	1.40070E-001	-2.19030E-009	0.00000E+000	1.40000E-001	8.00223E-005	4	..........a	-327.66
	2697	0.5396	1.70070E-001	-1.90829E-009	0.00000E+000	1.70000E-001	8.00223E-005	4	..........a	-327.66
	2700	0.5402	1.99870E-001	-1.61027E-009	0.00000E+000	2.00000E-001	8.00223E-005	4	..........a	-327.66
	2703	0.5408	2.29870E-001	-1.30226E-009	0.00000E+000	2.30000E-001	8.00223E-005	4	..........a	-327.66
	2706	0.5414	2.60070E-001	-9.84250E-010	0.00000E+000	2.60000E-001	8.00223E-005	4	..........a	-327.66
	2709	0.542	2.90070E-001	-6.51237E-010	0.00000E+000	2.90000E-001	8.00223E-005	4	..........a	-327.66
	2712	0.5426	3.20070E-001	-2.99224E-010	0.00000E+000	3.20000E-001	-2.19978E-004	4	..........a	-327.66
	2715	0.5432	3.50070E-001	5.67898E-011	0.00000E+000	3.50000E-001	8.00223E-005	4	..........a	-327.66
	2718	0.5438	3.80070E-001	4.36804E-010	0.00000E+000	3.80000E-001	8.00223E-005	4	..........a	-327.66
	2721	0.5444	4.09870E-001	8.19819E-010	0.00000E+000	4.10000E-001	8.00223E-005	4	..........a	-327.66
	2724	0.545	4.40070E-001	1.21983E-009	0.00000E+000	4.40000E-001	8.00223E-005	4	..........a	-327.66
	2727	0.5456	4.69970E-001	1.63485E-009	0.00000E+000	4.70000E-001	8.00223E-005	4	..........a	-327.66
	2730	0.5462	5.00219E-001	2.05887E-009	0.00000E+000	5.00000E-001	8.00223E-005	4	..........a	-327.66
	2733	0.5468	5.29970E-001	2.50188E-009	0.00000E+000	5.30000E-001	8.00223E-005	4	..........a	-327.66
	2736	0.5474	5.59770E-001	2.95490E-009	0.00000E+000	5.60000E-001	8.00223E-005	4	..........a	-327.66
	2739	0.548	5.89969E-001	3.42192E-009	0.00000E+000	5.90000E-001	8.00223E-005	4	..........a	-327.66
	2742	0.5486	6.19769E-001	3.90894E-009	0.00000E+000	6.20000E-001	8.00223E-005	4	..........a	-327.66
	2745	0.5492	6.49969E-001	4.41296E-009	0.00000E+000	6.50000E-001	8.00223E-005	4	..........a	-327.66
	2748	0.5498	6.79869E-001	4.92998E-009	0.00000E+000	6.80000E-001	8.00223E-005	4	..........a	-327.66
	2751	0.5504	7.09819E-001	5.46400E-009	0.00000E+000	7.10000E-001	8.00223E-005	4	..........a	-327.66
	2754	0.551	7.39769E-001	6.02202E-009	0.00000E+000	7.40000E-001	8.00223E-005	4	..........a	-327.66
	2757	0.5516	7.69769E-001	6.60804E-009	0.00000E+000	7.70000E-001	8.00223E-005	4	..........a	-327.66
	2760	0.5522	7.99969E-001	7.21706E-009	0.00000E+000	8.00000E-001	8.00223E-005	4	..........a	-327.66
CURVE11	TABLE
	Pt	T	Vf	Im	Vu	Sig	Ach	IERange	Over	Temp
	#	s	V vs. Ref.	A	V	V	V	#	bits	deg C
	2761	0.5524	7.90069E-001	7.31707E-009	0.00000E+000	7.90000E-001	8.00223E-005	4	..........a	-327.66
	2762	0.5526	7.79969E-001	7.38607E-009	0.00000E+000	7.80000E-001	-2.19978E-004	4	..........a	-327.66
	2763	0.5528	7.69870E-001	7.43707E-009	0.00000E+000	7.70000E-001	8.00223E-005	4	..........a	-327.66
	2764	0.553	7.59769E-001	7.47207E-009	0.00000E+000	7.60000E-001	8.00223E-005	4	..........a	-327.66
	2765	0.5532	7.49969E-001	7.48507E-009	0.00000E+000	7.50000E-001	8.00223E-005	4	..........a	-327.66
	2766	0.5534	7.39969E-001	7.49308E-009	0.00000E+000	7.40000E-001	8.00223E-005	4	..........a	-327.66
	2767	0.5536	7.29769E-001	7.49008E-009	0.00000E+000	7.30000E-001	8.00223E-005	4	..........a	-327.66
	2768	0.5538	7.19669E-001	7.47407E-009	0.00000E+000	7.20000E-001	8.00223E-005	4	..........a	-327.66
	2769	0.554	7.09870E-001	7.45207E-009	0.00000E+000	7.10000E-001	-2.19978E-004	4	..........a	-327.66
	2770	0.5542	6.99769E-001	7.43107E-009	0.00000E+000	7.00000E-001	8.00223E-005	4	..........a	-327.66
	2771	0.5544	6.89869E-001	7.39007E-009	0.00000E+000	6.90000E-001	8.00223E-005	4	..........a	-327.66
	2772	0.5546	6.79769E-001	7.35807E-009	0.00000E+000	6.80000E-001	8.00223E-005	4	..........a	-327.66
	2773	0.5548	6.70069E-001	7.31707E-009	0.00000E+000	6.70000E-001	8.00223E-005	4	..........a	-327.66
	2774	0.555	6.59970E-001	7.27807E-009	0.00000E+000	6.60000E-001	8.00223E-005	4	..........a	-327.66
	2775	0.5552	6.49870E-001	7.22807E-009	0.00000E+000	6.50000E-001	8.00223E-005	4	..........a	-327.66
	2776	0.5554	6.39870E-001	7.18006E-009	0.00000E+000	6.40000E-001	8.00223E-005	4	..........a	-327.66
	2777	0.5556	6.29969E-001	7.12906E-009	0.00000E+000	6.30000E-001	8.00223E-005	4	..........a	-327.66
	2778	0.5558	6.20169E-001	7.06706E-009	0.00000E+000	6.20000E-001	8.00223E-005	4	..........a	-327.66
	2779	0.556	6.09969E-001	7.00906E-009	0.00000E+000	6.10000E-001	8.00223E-005	4	..........a	-327.66
	2780	0.5562	5.99970E-001	6.95205E-009	0.00000E+000	6.00000E-001	8.00223E-005	4	..........a	-327.66
	2781	0.5564	5.89869E-001	6.88605E-009	0.00000E+000	5.90000E-001	8.00223E-005	4	..........a	-327.66
	2782	0.5566	5.80069E-001	6.81605E-009	0.00000E+000	5.80000E-001	8.00223E-005	4	..........a	-327.66
	2783	0.5568	5.69969E-001	6.75005E-009	0.00000E+000	5.70000E-001	8.00223E-005	4	..........a	-327.66
	2784	0.557	5.59869E-001	6.68904E-009	0.00000E+000	5.60000E-001	8.00223E-005	4	..........a	-327.66
	2785	0.5572	5.50070E-001	6.61804E-009	0.00000E+000	5.50000E-001	8.00223E-005	4	..........a	-327.66
	2786	0.5574	5.39970E-001	6.54204E-009	0.00000E+000	5.40000E-001	8.00223E-005	4	..........a	-327.66
	2787	0.5576	5.29970E-001	6.46604E-009	0.00000E+000	5.30000E-001	8.00223E-005	4	..........a	-327.66
	2788	0.5578	5.19969E-001	6.39303E-009	0.00000E+000	5.20000E-001	8.00223E-005	4	..........a	-327.66
	2789	0.558	5.10069E-001	6.31403E-009	0.00000E+000	5.10000E-001	8.00223E-005	4	..........a	-327.66
	2790	0.5582	5.00069E-001	6.23403E-009	0.00000E+000	5.00000E-001	8.00223E-005	4	..........a	-327.66
	2791	0.5584	4.89970E-001	6.15002E-009	0.00000E+000	4.90000E-001	8.00223E-005	4	..........a	-327.66
	2792	0.5586	4.79970E-001	6.07102E-009	0.00000E+000	4.80000E-001	8.00223E-005	4	..........a	-327.66
	2793	0.5588	4.69870E-001	5.98502E-009	0.00000E+000	4.70000E-001	8.00223E-005	4	..........a	-327.66
	2794	0.559	4.60070E-001	5.89701E-009	0.00000E+000	4.60000E-001	8.00223E-005	4	..........a	-327.66
	2795	0.5592	4.49670E-001	5.80801E-009	0.00000E+000	4.50000E-001	8.00223E-005	4	..........a	-327.66
	2796	0.5594	4.40070E-001	5.71801E-009	0.00000E+000	4.40000E-001	8.00223E-005	4	..........a	-327.66
	2797	0.5596	4.30070E-001	5.62500E-009	0.00000E+000	4.30000E-001	8.00223E-005	4	..........a	-327.66
	2798	0.5598	4.19970E-001	5.53400E-009	0.00000E+000	4.20000E-001	8.00223E-005	4	..........a	-327.66
	2799	0.56	4.09770E-001	5.43500E-009	0.00000E+000	4.10000E-001	8.00223E-005	4	..........a	-327.66
	2800	0.5602	4.00170E-001	5.33699E-009	0.00000E+000	4.00000E-001	8.00223E-005	4	..........a	-327.66