File: data/raw/batch_data/20240522_K_GM0016_HL03_E03_CV50.DTA
EXPLAIN
TAG	CV
TITLE	LABEL	Cyclic Voltammetry	Test &Identifier
DATE	LABEL	5/22/2024	Date
TIME	LABEL	17:23:24	Time
NOTES	NOTES	1	&Notes...

PSTAT	PSTAT	REF600P-43058	Potentiostat
VINIT	POTEN	0.00000E+000	T	Initial &E (V)
VLIMIT1	POTEN	8.00000E-001	F	Scan Limit &1 (V)
VLIMIT2	POTEN	-6.00000E-001	F	Scan Limit &2 (V)
VFINAL	POTEN	0.00000E+000	T	Final &E (V)
SCANRATE	QUANT	4.99999E+001	&Scan Rate (mV/s)
STEPSIZE	QUANT	1.00000E+001	St&ep Size (mV)
CYCLES	IQUANT	4	C&ycles (#)
IMODE	SELECTOR	0	I/E Range &Mode
IRANGE	QUANT	1.00000E-005	&Max Current (mA)
AREA	QUANT	1.00000E+000	Electrode &Area (cm^2)
ELECTRODETYPE	SELECTOR	0	Electrode Type
STRIPPING	TOGGLE	F	Used for Stripping
POLARITY	TOGGLE	F	Signal Polarity
CONDIT	TWOPARAM	F	1.50000E+001	0.00000E+000	Conditionin&g	Time(s)	E(V)
DELAY	TWOPARAM	T	1.00000E+001	0.00000E+000	Init. De&lay	Time(s)	Stab.(mV/s)
EQDELAY	QUANT	5.00000E+000	Equil. &Time (s)
IRCOMP	SELECTOR	0	IRCom&p
PFCOR	QUANT	5.00000E+001	PF Corr. (ohm)
SAMPLINGMODE	SELECTOR	1	Sampling &Mode
OCVCURVE	TABLE	39
	Pt	T	Vf	Vm	Ach	Over	Temp
	#	s	V vs. Ref.	V	V	bits	deg C
	0	0.258333	-6.03223E-002	-6.03223E-002	2.42259E-004	..........a	-327.66
	1	0.516667	-6.03228E-002	-6.03533E-002	2.56526E-004	..........a	-327.66
	2	0.775	-6.03267E-002	-6.03933E-002	2.42859E-004	..........a	-327.66
	3	1.03333	-6.03381E-002	-6.04260E-002	2.52126E-004	..........a	-327.66
	4	1.29167	-6.03594E-002	-6.04574E-002	2.41726E-004	..........a	-327.66
	5	1.55	-6.03884E-002	-6.04908E-002	2.49126E-004	..........a	-327.66
	6	1.80833	-6.04212E-002	-6.05259E-002	2.39926E-004	..........a	-327.66
	7	2.06667	-6.04550E-002	-6.05637E-002	2.46059E-004	..........a	-327.66
	8	2.325	-6.04893E-002	-6.05968E-002	2.45726E-004	..........a	-327.66
	9	2.58333	-6.05243E-002	-6.06376E-002	2.40592E-004	..........a	-327.66
	10	2.84167	-6.05598E-002	-6.06624E-002	2.56126E-004	..........a	-327.66
	11	3.1	-6.05952E-002	-6.07011E-002	2.47659E-004	..........a	-327.66
	12	3.35833	-6.06297E-002	-6.07319E-002	2.54192E-004	..........a	-327.66
	13	3.61667	-6.06635E-002	-6.07672E-002	2.32526E-004	..........a	-327.66
	14	3.875	-6.06971E-002	-6.08052E-002	2.48259E-004	..........a	-327.66
	15	4.13333	-6.07310E-002	-6.08360E-002	2.50126E-004	..........a	-327.66
	16	4.39167	-6.07656E-002	-6.08798E-002	2.56326E-004	..........a	-327.66
	17	4.65	-6.08009E-002	-6.09074E-002	2.46526E-004	..........a	-327.66
	18	4.90833	-6.08367E-002	-6.09507E-002	2.58526E-004	..........a	-327.66
	19	5.16667	-6.08725E-002	-6.09744E-002	2.57259E-004	..........a	-327.66
	20	5.425	-6.09077E-002	-6.10075E-002	2.49926E-004	..........a	-327.66
	21	5.68333	-6.09416E-002	-6.10437E-002	2.42592E-004	..........a	-327.66
	22	5.94167	-6.09744E-002	-6.10728E-002	2.56859E-004	..........a	-327.66
	23	6.2	-6.10069E-002	-6.11159E-002	2.50792E-004	..........a	-327.66
	24	6.45833	-6.10400E-002	-6.11411E-002	2.51392E-004	..........a	-327.66
	25	6.71667	-6.10738E-002	-6.11762E-002	2.46126E-004	..........a	-327.66
	26	6.975	-6.11076E-002	-6.12127E-002	2.59392E-004	..........a	-327.66
	27	7.23333	-6.11411E-002	-6.12412E-002	2.41326E-004	..........a	-327.66
	28	7.49167	-6.11745E-002	-6.12804E-002	2.52659E-004	..........a	-327.66
	29	7.75	-6.12078E-002	-6.13040E-002	2.60459E-004	..........a	-327.66
	30	8.00833	-6.12409E-002	-6.13438E-002	2.43926E-004	..........a	-327.66
	31	8.26667	-6.12736E-002	-6.13748E-002	2.59192E-004	..........a	-327.66
	32	8.525	-6.13062E-002	-6.14018E-002	2.58926E-004	..........a	-327.66
	33	8.78333	-6.13387E-002	-6.14442E-002	2.54326E-004	..........a	-327.66
	34	9.04167	-6.13713E-002	-6.14743E-002	2.52392E-004	..........a	-327.66
	35	9.3	-6.14048E-002	-6.15264E-002	2.39592E-004	..........a	-327.66
	36	9.5583	-6.14401E-002	-6.15486E-002	2.73059E-004	..........a	-327.66
	37	9.8167	-6.14767E-002	-6.15737E-002	2.45059E-004	..........a	-327.66
	38	10.075	-6.15120E-002	-6.16067E-002	2.54059E-004	..........a	-327.66
EOC	QUANT	-0.061512	Open Circuit (V)
PSTATMODEL	IQUANT	7	Pstat Model
PSTATSECTION	LABEL	REF600P-43058	Pstat Section
PSTATSERIALNO	LABEL	43058	Pstat Serial Number
CTRLMODE	IQUANT	1	Control Mode
ELECTROMETER	IQUANT	0	RE=0 or CS=1
IESTAB	IQUANT	2	I/E Stability
CASPEED	IQUANT	4	Control Amp Speed
CONVENTION	IQUANT	1	Current Convention
ICHRANGE	IQUANT	2	Ich Range
ICHRANGEMODE	TOGGLE	F	Ich Auto Range
ICHOFFSETENABLE	TOGGLE	F	Ich Offset Enable
ICHOFFSET	QUANT	0	Ich Offset (V)
ICHFILTER	IQUANT	2	Ich Filter
VCHRANGE	IQUANT	2	Vch Range
VCHRANGEMODE	TOGGLE	F	Vch Auto Range
VCHOFFSETENABLE	TOGGLE	F	Vch Offset Enable
VCHOFFSET	QUANT	0	Vch Offset (V)
VCHFILTER	IQUANT	2	Vch Filter
ACHRANGE	IQUANT	2	Ach Range
ACHOFFSETENABLE	TOGGLE	F	Ach Offset Enable
ACHOFFSET	QUANT	0	Ach Offset (V)
ACHFILTER	IQUANT	1	Ach Filter
IERANGELOWERLIMIT	IQUANT	1	I/E Range Lower Limit
IERANGEMODE	TOGGLE	T	I/E AutoRange
IERANGE	IQUANT	4	I/E Range
POSFEEDENABLE	TOGGLE	F	Positive Feedback IR Comp
POSFEEDRESISTANCE	QUANT	0	Positive Feedback Resistance (ohm)
ACHSELECT	IQUANT	4	Ach Select
SENSECABLEID	IQUANT	7	Sense Cable ID
PWRCABLEID	IQUANT	7	Power Cable ID
DCCALDATE	LABEL	3/22/2024	DC Calibration Date
ACCALDATE	LABEL	3/22/2024	AC Calibration Date
THERMOSELECT	IQUANT	1	Thermo Select
FRAMEWORKVERSION	LABEL	7.8.4	Framework Version
INSTRUMENTVERSION	LABEL	4.42	Instrument Version
CURVE1	TABLE
	Pt	T	Vf	Im	Vu	Sig	Ach	IERange	Over	Temp
	#	s	V vs. Ref.	A	V	V	V	#	bits	deg C
	0	0.2	-6.13097E-002	2.88277E-010	0.00000E+000	-6.15000E-002	1.00359E-003	5	..........a	-327.66
	3	0.8	-3.14597E-002	2.21168E-008	0.00000E+000	-3.15000E-002	1.00029E-003	5	..........a	-327.66
	6	1.4	-1.46536E-003	3.21791E-008	0.00000E+000	-1.50000E-003	1.01389E-003	5	..........a	-327.66
	9	2	2.85197E-002	4.04065E-008	0.00000E+000	2.85000E-002	1.01689E-003	5	..........a	-327.66
	12	2.6	5.86199E-002	4.84968E-008	0.00000E+000	5.85000E-002	9.95392E-004	5	..........a	-327.66
	15	3.2	8.85608E-002	5.67230E-008	0.00000E+000	8.85000E-002	1.00019E-003	5	..........a	-327.66
	18	3.8	1.18533E-001	6.52918E-008	0.00000E+000	1.18500E-001	1.00969E-003	5	..........a	-327.66
	21	4.4	1.48544E-001	7.44045E-008	0.00000E+000	1.48500E-001	1.01489E-003	5	..........a	-327.66
	24	5	1.78623E-001	8.38863E-008	0.00000E+000	1.78500E-001	9.82092E-004	5	..........a	-327.66
	27	5.6	2.08482E-001	9.36021E-008	0.00000E+000	2.08500E-001	1.01369E-003	5	..........a	-327.66
	30	6.2	2.38490E-001	1.03047E-007	0.00000E+000	2.38500E-001	1.02129E-003	5	..........a	-327.66
	33	6.8	2.68518E-001	1.11355E-007	0.00000E+000	2.68500E-001	1.01449E-003	5	..........a	-327.66
	36	7.4	2.98574E-001	1.18052E-007	0.00000E+000	2.98500E-001	9.77892E-004	5	..........a	-327.66
	39	8	3.28470E-001	1.23352E-007	0.00000E+000	3.28500E-001	1.02219E-003	5	..........a	-327.66
	42	8.6	3.58416E-001	1.29830E-007	0.00000E+000	3.58500E-001	1.02179E-003	5	..........a	-327.66
	45	9.2	3.88442E-001	1.36241E-007	0.00000E+000	3.88500E-001	1.01479E-003	5	..........a	-327.66
	48	9.8	4.18484E-001	1.43332E-007	0.00000E+000	4.18500E-001	1.01279E-003	5	..........a	-327.66
	51	10.4	4.48479E-001	1.49875E-007	0.00000E+000	4.48500E-001	1.00289E-003	5	..........a	-327.66
	54	11	4.78366E-001	1.56029E-007	0.00000E+000	4.78500E-001	1.02599E-003	5	..........a	-327.66
	57	11.6	5.08401E-001	1.61826E-007	0.00000E+000	5.08500E-001	1.01439E-003	5	..........a	-327.66
	60	12.2	5.38436E-001	1.67972E-007	0.00000E+000	5.38500E-001	1.00709E-003	5	..........a	-327.66
	63	12.8	5.68400E-001	1.74766E-007	0.00000E+000	5.68500E-001	1.00229E-003	5	..........a	-327.66
	66	13.4	5.98419E-001	1.79579E-007	0.00000E+000	5.98500E-001	1.00649E-003	5	..........a	-327.66
	69	14	6.28363E-001	1.83842E-007	0.00000E+000	6.28500E-001	1.00349E-003	5	..........a	-327.66
	72	14.6	6.58427E-001	1.89514E-007	0.00000E+000	6.58500E-001	1.00499E-003	5	..........a	-327.66
	75	15.2	6.88350E-001	1.96065E-007	0.00000E+000	6.88500E-001	1.00799E-003	5	..........a	-327.66
	78	15.8	7.18332E-001	2.03977E-007	0.00000E+000	7.18500E-001	1.00739E-003	5	..........a	-327.66
	81	16.4	7.48395E-001	2.12400E-007	0.00000E+000	7.48500E-001	1.00489E-003	5	..........a	-327.66
	84	17	7.78364E-001	2.21062E-007	0.00000E+000	7.78500E-001	1.02009E-003	5	..........a	-327.66
	87	17.6	7.88385E-001	1.98220E-007	0.00000E+000	7.88500E-001	1.02609E-003	5	..........a	-327.66
	90	18.2	7.58350E-001	1.51545E-007	0.00000E+000	7.58500E-001	9.99392E-004	5	..........a	-327.66
	93	18.8	7.28445E-001	1.24003E-007	0.00000E+000	7.28500E-001	1.00779E-003	5	..........a	-327.66
	96	19.4	6.98432E-001	1.04669E-007	0.00000E+000	6.98500E-001	1.00729E-003	5	..........a	-327.66
	99	20	6.68386E-001	8.99238E-008	0.00000E+000	6.68500E-001	1.01869E-003	5	..........a	-327.66
	102	20.6	6.38388E-001	7.82961E-008	0.00000E+000	6.38500E-001	1.02279E-003	5	..........a	-327.66
	105	21.2	6.08441E-001	6.80907E-008	0.00000E+000	6.08500E-001	1.00779E-003	5	..........a	-327.66
	108	21.8	5.78551E-001	5.92880E-008	0.00000E+000	5.78500E-001	9.90592E-004	5	..........a	-327.66
	111	22.4	5.48524E-001	5.12713E-008	0.00000E+000	5.48500E-001	1.01409E-003	5	..........a	-327.66
	114	23	5.18430E-001	4.39175E-008	0.00000E+000	5.18500E-001	1.01359E-003	5	..........a	-327.66
	117	23.6	4.88469E-001	3.69335E-008	0.00000E+000	4.88500E-001	1.02789E-003	5	..........a	-327.66
	120	24.2	4.58595E-001	3.03107E-008	0.00000E+000	4.58500E-001	1.01169E-003	5	..........a	-327.66
	123	24.8	4.28414E-001	2.39026E-008	0.00000E+000	4.28500E-001	1.01609E-003	5	..........a	-327.66
	126	25.4	3.98529E-001	1.76921E-008	0.00000E+000	3.98500E-001	1.00569E-003	5	..........a	-327.66
	129	26	3.68546E-001	1.16396E-008	0.00000E+000	3.68500E-001	1.01609E-003	5	..........a	-327.66
	132	26.6	3.38620E-001	5.70078E-009	0.00000E+000	3.38500E-001	9.88092E-004	5	..........a	-327.66
	135	27.2	3.08535E-001	-2.24002E-010	0.00000E+000	3.08500E-001	9.99592E-004	5	..........a	-327.66
	138	27.8	2.78525E-001	-6.03866E-009	0.00000E+000	2.78500E-001	1.00869E-003	5	..........a	-327.66
	141	28.4	2.48529E-001	-1.18806E-008	0.00000E+000	2.48500E-001	1.00009E-003	5	..........a	-327.66
	144	29	2.18665E-001	-1.77405E-008	0.00000E+000	2.18500E-001	1.02749E-003	5	..........a	-327.66
	147	29.6	1.88594E-001	-2.36783E-008	0.00000E+000	1.88500E-001	1.01309E-003	5	..........a	-327.66
	150	30.2	1.58577E-001	-2.95766E-008	0.00000E+000	1.58500E-001	1.00199E-003	5	..........a	-327.66
	153	30.8	1.28582E-001	-3.59619E-008	0.00000E+000	1.28500E-001	1.01809E-003	5	..........a	-327.66
	156	31.4	9.87086E-002	-4.18915E-008	0.00000E+000	9.85000E-002	1.01009E-003	5	..........a	-327.66
	159	32	6.85718E-002	-4.73895E-008	0.00000E+000	6.85000E-002	1.00599E-003	5	..........a	-327.66
	162	32.6	3.86247E-002	-5.33608E-008	0.00000E+000	3.85000E-002	9.99592E-004	5	..........a	-327.66
	165	33.2	8.61314E-003	-5.97602E-008	0.00000E+000	8.50000E-003	1.01339E-003	5	..........a	-327.66
	168	33.8	-2.13357E-002	-6.46349E-008	0.00000E+000	-2.15000E-002	1.01239E-003	5	..........a	-327.66
	171	34.4	-5.14114E-002	-6.89794E-008	0.00000E+000	-5.15000E-002	9.98192E-004	5	..........a	-327.66
	174	35	-8.14168E-002	-7.29947E-008	0.00000E+000	-8.15000E-002	1.01099E-003	5	..........a	-327.66
	177	35.6	-1.11415E-001	-7.69720E-008	0.00000E+000	-1.11500E-001	1.02309E-003	5	..........a	-327.66
	180	36.2	-1.41384E-001	-8.08405E-008	0.00000E+000	-1.41500E-001	1.01309E-003	5	..........a	-327.66
	183	36.8	-1.71400E-001	-8.50470E-008	0.00000E+000	-1.71500E-001	1.01729E-003	5	..........a	-327.66
	186	37.4	-2.01412E-001	-8.95775E-008	0.00000E+000	-2.01500E-001	1.00759E-003	5	..........a	-327.66
	189	38	-2.31366E-001	-9.43339E-008	0.00000E+000	-2.31500E-001	9.88392E-004	5	..........a	-327.66
	192	38.6	-2.61254E-001	-9.92100E-008	0.00000E+000	-2.61500E-001	1.02289E-003	5	..........a	-327.66
	195	39.2	-2.91334E-001	-1.05006E-007	0.00000E+000	-2.91500E-001	1.00689E-003	5	..........a	-327.66
	198	39.8	-3.21328E-001	-1.11704E-007	0.00000E+000	-3.21500E-001	1.01889E-003	5	..........a	-327.66
	201	40.4	-3.51361E-001	-1.19199E-007	0.00000E+000	-3.51500E-001	9.98192E-004	5	..........a	-327.66
	204	41	-3.81256E-001	-1.27740E-007	0.00000E+000	-3.81500E-001	9.94692E-004	5	..........a	-327.66
	207	41.6	-4.11329E-001	-1.36494E-007	0.00000E+000	-4.11500E-001	1.01339E-003	5	..........a	-327.66
	210	42.2	-4.41335E-001	-1.46049E-007	0.00000E+000	-4.41500E-001	1.02749E-003	5	..........a	-327.66
	213	42.8	-4.71352E-001	-1.56083E-007	0.00000E+000	-4.71500E-001	9.83492E-004	5	..........a	-327.66
	216	43.4	-5.01255E-001	-1.66287E-007	0.00000E+000	-5.01500E-001	1.01599E-003	5	..........a	-327.66
	219	44	-5.31313E-001	-1.76691E-007	0.00000E+000	-5.31500E-001	1.02569E-003	5	..........a	-327.66
	222	44.6	-5.61318E-001	-1.87108E-007	0.00000E+000	-5.61500E-001	1.02139E-003	5	..........a	-327.66
	225	45.2	-5.91291E-001	-1.97670E-007	0.00000E+000	-5.91500E-001	1.01029E-003	5	..........a	-327.66
	226	45.4	-6.01299E-001	-2.01078E-007	0.00000E+000	-6.01500E-001	1.02429E-003	5	..........a	-327.66
CURVE2	TABLE
	Pt	T	Vf	Im	Vu	Sig	Ach	IERange	Over	Temp
	#	s	V vs. Ref.	A	V	V	V	#	bits	deg C
	227	45.6	-5.89807E-001	-1.72438E-007	0.00000E+000	-5.90000E-001	9.89192E-004	5	..........a	-327.66
	230	46.2	-5.59840E-001	-1.29338E-007	0.00000E+000	-5.60000E-001	1.00399E-003	5	..........a	-327.66
	233	46.8	-5.29819E-001	-1.01754E-007	0.00000E+000	-5.30000E-001	9.96092E-004	5	..........a	-327.66
	236	47.4	-4.99804E-001	-8.11608E-008	0.00000E+000	-5.00000E-001	9.96292E-004	5	..........a	-327.66
	239	48	-4.69835E-001	-6.48752E-008	0.00000E+000	-4.70000E-001	1.00649E-003	5	..........a	-327.66
	242	48.6	-4.39841E-001	-5.14124E-008	0.00000E+000	-4.40000E-001	1.02409E-003	5	..........a	-327.66
	245	49.2	-4.09859E-001	-3.99844E-008	0.00000E+000	-4.10000E-001	1.00599E-003	5	..........a	-327.66
	248	49.8	-3.79829E-001	-3.01107E-008	0.00000E+000	-3.80000E-001	9.86892E-004	5	..........a	-327.66
	251	50.4	-3.49876E-001	-2.13637E-008	0.00000E+000	-3.50000E-001	1.00079E-003	5	..........a	-327.66
	254	51	-3.19863E-001	-1.35300E-008	0.00000E+000	-3.20000E-001	1.01919E-003	5	..........a	-327.66
	257	51.6	-2.89903E-001	-6.35897E-009	0.00000E+000	-2.90000E-001	1.00719E-003	5	..........a	-327.66
	260	52.2	-2.59821E-001	3.34459E-010	0.00000E+000	-2.60000E-001	1.01309E-003	5	..........a	-327.66
	263	52.8	-2.29957E-001	6.67416E-009	0.00000E+000	-2.30000E-001	1.01669E-003	5	..........a	-327.66
	266	53.4	-1.99993E-001	1.28094E-008	0.00000E+000	-2.00000E-001	1.01539E-003	5	..........a	-327.66
	269	54	-1.69917E-001	1.87756E-008	0.00000E+000	-1.70000E-001	1.01919E-003	5	..........a	-327.66
	272	54.6	-1.39888E-001	2.47791E-008	0.00000E+000	-1.40000E-001	1.02499E-003	5	..........a	-327.66
	275	55.2	-1.09980E-001	3.08591E-008	0.00000E+000	-1.10000E-001	1.01759E-003	5	..........a	-327.66
	278	55.8	-7.99755E-002	3.71450E-008	0.00000E+000	-8.00000E-002	1.02029E-003	5	..........a	-327.66
	281	56.4	-4.99536E-002	4.37774E-008	0.00000E+000	-5.00000E-002	1.01249E-003	5	..........a	-327.66
	284	57	-1.99455E-002	5.07941E-008	0.00000E+000	-2.00000E-002	1.00939E-003	5	..........a	-327.66
	287	57.6	1.00684E-002	5.84057E-008	0.00000E+000	1.00000E-002	1.00129E-003	5	..........a	-327.66
	290	58.2	4.00221E-002	6.66535E-008	0.00000E+000	4.00000E-002	1.00809E-003	5	..........a	-327.66
	293	58.8	6.99834E-002	7.44987E-008	0.00000E+000	7.00000E-002	1.00119E-003	5	..........a	-327.66
	296	59.4	1.00063E-001	8.29957E-008	0.00000E+000	1.00000E-001	1.01929E-003	5	..........a	-327.66
	299	60	1.29994E-001	9.13396E-008	0.00000E+000	1.30000E-001	1.01819E-003	5	..........a	-327.66
	302	60.6	1.59986E-001	9.96897E-008	0.00000E+000	1.60000E-001	1.02149E-003	5	..........a	-327.66
	305	61.2	1.90076E-001	1.08049E-007	0.00000E+000	1.90000E-001	1.02019E-003	5	..........a	-327.66
	308	61.8	2.19989E-001	1.15870E-007	0.00000E+000	2.20000E-001	9.91392E-004	5	..........a	-327.66
	311	62.4	2.49941E-001	1.23365E-007	0.00000E+000	2.50000E-001	1.00449E-003	5	..........a	-327.66
	314	63	2.79924E-001	1.29831E-007	0.00000E+000	2.80000E-001	1.01359E-003	5	..........a	-327.66
	317	63.6	3.09993E-001	1.34164E-007	0.00000E+000	3.10000E-001	1.00899E-003	5	..........a	-327.66
	320	64.2	3.40005E-001	1.37931E-007	0.00000E+000	3.40000E-001	1.02339E-003	5	..........a	-327.66
	323	64.8	3.69984E-001	1.40070E-007	0.00000E+000	3.70000E-001	1.02019E-003	5	..........a	-327.66
	326	65.4	3.99951E-001	1.44698E-007	0.00000E+000	4.00000E-001	1.00509E-003	5	..........a	-327.66
	329	66	4.29965E-001	1.49367E-007	0.00000E+000	4.30000E-001	1.02109E-003	5	..........a	-327.66
	332	66.6	4.59938E-001	1.54195E-007	0.00000E+000	4.60000E-001	1.00289E-003	5	..........a	-327.66
	335	67.2	4.89922E-001	1.57980E-007	0.00000E+000	4.90000E-001	1.00719E-003	5	..........a	-327.66
	338	67.8	5.19919E-001	1.62457E-007	0.00000E+000	5.20000E-001	1.01489E-003	5	..........a	-327.66
	341	68.4	5.49977E-001	1.67895E-007	0.00000E+000	5.50000E-001	9.95992E-004	5	..........a	-327.66
	344	69	5.79933E-001	1.72831E-007	0.00000E+000	5.80000E-001	9.95892E-004	5	..........a	-327.66
	347	69.6	6.09889E-001	1.77424E-007	0.00000E+000	6.10000E-001	1.01329E-003	5	..........a	-327.66
	350	70.2	6.39854E-001	1.82736E-007	0.00000E+000	6.40000E-001	1.03479E-003	5	..........a	-327.66
	353	70.8	6.69948E-001	1.88800E-007	0.00000E+000	6.70000E-001	1.01359E-003	5	..........a	-327.66
	356	71.4	6.99867E-001	1.95188E-007	0.00000E+000	7.00000E-001	9.90892E-004	5	..........a	-327.66
	359	72	7.29874E-001	2.02062E-007	0.00000E+000	7.30000E-001	1.00179E-003	5	..........a	-327.66
[...]
	979	196	2.70078E-001	-9.07614E-009	0.00000E+000	2.70000E-001	1.00449E-003	5	..........a	-327.66
	982	196.6	2.40079E-001	-1.48574E-008	0.00000E+000	2.40000E-001	1.00969E-003	5	..........a	-327.66
	985	197.2	2.10038E-001	-2.07790E-008	0.00000E+000	2.10000E-001	1.02669E-003	5	..........a	-327.66
	988	197.8	1.80137E-001	-2.69410E-008	0.00000E+000	1.80000E-001	1.00999E-003	5	..........a	-327.66
	991	198.4	1.50068E-001	-3.34513E-008	0.00000E+000	1.50000E-001	1.03089E-003	5	..........a	-327.66
	994	199	1.20069E-001	-3.98496E-008	0.00000E+000	1.20000E-001	1.01769E-003	5	..........a	-327.66
	997	199.6	9.01163E-002	-4.81119E-008	0.00000E+000	9.00000E-002	1.01259E-003	5	..........a	-327.66
	1000	200.2	6.01588E-002	-5.60916E-008	0.00000E+000	6.00000E-002	9.96092E-004	5	..........a	-327.66
	1003	200.8	3.00894E-002	-6.24344E-008	0.00000E+000	3.00000E-002	1.01099E-003	5	..........a	-327.66
	1006	201.4	4.68917E-005	-6.78362E-008	0.00000E+000	7.45058E-009	1.01249E-003	5	..........a	-327.66
	1009	202	-2.99184E-002	-7.29737E-008	0.00000E+000	-3.00000E-002	1.02689E-003	5	..........a	-327.66
	1012	202.6	-5.97898E-002	-7.76689E-008	0.00000E+000	-6.00000E-002	9.97392E-004	5	..........a	-327.66
	1015	203.2	-8.98601E-002	-8.18731E-008	0.00000E+000	-9.00000E-002	1.00349E-003	5	..........a	-327.66
	1018	203.8	-1.19858E-001	-8.60894E-008	0.00000E+000	-1.20000E-001	1.00819E-003	5	..........a	-327.66
	1021	204.4	-1.49907E-001	-9.01495E-008	0.00000E+000	-1.50000E-001	9.96492E-004	5	..........a	-327.66
	1024	205	-1.79823E-001	-9.42497E-008	0.00000E+000	-1.80000E-001	9.92792E-004	5	..........a	-327.66
	1027	205.6	-2.09864E-001	-9.82446E-008	0.00000E+000	-2.10000E-001	9.97592E-004	5	..........a	-327.66
	1030	206.2	-2.39830E-001	-1.02209E-007	0.00000E+000	-2.40000E-001	1.00139E-003	5	..........a	-327.66
	1033	206.8	-2.69833E-001	-1.06463E-007	0.00000E+000	-2.70000E-001	1.00999E-003	5	..........a	-327.66
	1036	207.4	-2.99797E-001	-1.11001E-007	0.00000E+000	-3.00000E-001	9.96192E-004	5	..........a	-327.66
	1039	208	-3.29856E-001	-1.16116E-007	0.00000E+000	-3.30000E-001	1.02869E-003	5	..........a	-327.66
	1042	208.6	-3.59845E-001	-1.21916E-007	0.00000E+000	-3.60000E-001	1.00759E-003	5	..........a	-327.66
	1045	209.2	-3.89857E-001	-1.28568E-007	0.00000E+000	-3.90000E-001	1.01219E-003	5	..........a	-327.66
	1048	209.8	-4.19704E-001	-1.35759E-007	0.00000E+000	-4.20000E-001	9.94992E-004	5	..........a	-327.66
	1051	210.4	-4.49811E-001	-1.43920E-007	0.00000E+000	-4.50000E-001	1.01139E-003	5	..........a	-327.66
	1054	211	-4.79797E-001	-1.52785E-007	0.00000E+000	-4.80000E-001	1.01499E-003	5	..........a	-327.66
	1057	211.6	-5.09799E-001	-1.62461E-007	0.00000E+000	-5.10000E-001	1.01389E-003	5	..........a	-327.66
	1060	212.2	-5.39705E-001	-1.72683E-007	0.00000E+000	-5.40000E-001	9.98392E-004	5	..........a	-327.66
	1063	212.8	-5.69786E-001	-1.83336E-007	0.00000E+000	-5.70000E-001	1.03509E-003	5	..........a	-327.66
	1066	213.4	-5.99793E-001	-1.94323E-007	0.00000E+000	-6.00000E-001	9.92992E-004	5	..........a	-327.66
CURVE5	TABLE
	Pt	T	Vf	Im	Vu	Sig	Ach	IERange	Over	Temp
	#	s	V vs. Ref.	A	V	V	V	#	bits	deg C
	1067	213.6	-5.89814E-001	-1.68750E-007	0.00000E+000	-5.90000E-001	1.02029E-003	5	..........a	-327.66
	1068	213.8	-5.79746E-001	-1.51458E-007	0.00000E+000	-5.80000E-001	1.01419E-003	5	..........a	-327.66
	1069	214	-5.69817E-001	-1.37834E-007	0.00000E+000	-5.70000E-001	1.02749E-003	5	..........a	-327.66
	1070	214.2	-5.59811E-001	-1.26336E-007	0.00000E+000	-5.60000E-001	1.00279E-003	5	..........a	-327.66
	1071	214.4	-5.49818E-001	-1.16388E-007	0.00000E+000	-5.50000E-001	1.01169E-003	5	..........a	-327.66
	1072	214.6	-5.39732E-001	-1.07622E-007	0.00000E+000	-5.40000E-001	1.01159E-003	5	..........a	-327.66
	1073	214.8	-5.29830E-001	-9.97188E-008	0.00000E+000	-5.30000E-001	1.01449E-003	5	..........a	-327.66
	1074	215	-5.19819E-001	-9.25522E-008	0.00000E+000	-5.20000E-001	1.00899E-003	5	..........a	-327.66
	1075	215.2	-5.09819E-001	-8.60037E-008	0.00000E+000	-5.10000E-001	1.00139E-003	5	..........a	-327.66
	1076	215.4	-4.99801E-001	-7.99301E-008	0.00000E+000	-5.00000E-001	1.00729E-003	5	..........a	-327.66
	1077	215.6	-4.89843E-001	-7.43350E-008	0.00000E+000	-4.90000E-001	1.02159E-003	5	..........a	-327.66
	1078	215.8	-4.79843E-001	-6.91257E-008	0.00000E+000	-4.80000E-001	1.02869E-003	5	..........a	-327.66
	1079	216	-4.69826E-001	-6.42300E-008	0.00000E+000	-4.70000E-001	1.00029E-003	5	..........a	-327.66
	1080	216.2	-4.59782E-001	-5.96979E-008	0.00000E+000	-4.60000E-001	9.93492E-004	5	..........a	-327.66
	1081	216.4	-4.49829E-001	-5.53229E-008	0.00000E+000	-4.50000E-001	9.97692E-004	5	..........a	-327.66
	1082	216.6	-4.39843E-001	-5.12297E-008	0.00000E+000	-4.40000E-001	1.01809E-003	5	..........a	-327.66
	1083	216.8	-4.29852E-001	-4.73515E-008	0.00000E+000	-4.30000E-001	1.01469E-003	5	..........a	-327.66
	1084	217	-4.19756E-001	-4.36617E-008	0.00000E+000	-4.20000E-001	9.89292E-004	5	..........a	-327.66
	1085	217.2	-4.09852E-001	-4.01128E-008	0.00000E+000	-4.10000E-001	1.02879E-003	5	..........a	-327.66
	1086	217.4	-3.99859E-001	-3.67678E-008	0.00000E+000	-4.00000E-001	1.01279E-003	5	..........a	-327.66
	1087	217.6	-3.89918E-001	-3.35528E-008	0.00000E+000	-3.90000E-001	1.02829E-003	5	..........a	-327.66
	1088	217.8	-3.79829E-001	-3.04640E-008	0.00000E+000	-3.80000E-001	1.01009E-003	5	..........a	-327.66
	1089	218	-3.69868E-001	-2.74978E-008	0.00000E+000	-3.70000E-001	1.03119E-003	5	..........a	-327.66
	1090	218.2	-3.59875E-001	-2.46270E-008	0.00000E+000	-3.60000E-001	1.00569E-003	5	..........a	-327.66
	1091	218.4	-3.49878E-001	-2.18609E-008	0.00000E+000	-3.50000E-001	1.01749E-003	5	..........a	-327.66
	1092	218.6	-3.39809E-001	-1.91935E-008	0.00000E+000	-3.40000E-001	1.00709E-003	5	..........a	-327.66
	1093	218.8	-3.29902E-001	-1.65861E-008	0.00000E+000	-3.30000E-001	1.00619E-003	5	..........a	-327.66
	1094	219	-3.19847E-001	-1.40620E-008	0.00000E+000	-3.20000E-001	1.01459E-003	5	..........a	-327.66
	1095	219.2	-3.09907E-001	-1.16059E-008	0.00000E+000	-3.10000E-001	1.01629E-003	5	..........a	-327.66
	1096	219.4	-2.99838E-001	-9.21930E-009	0.00000E+000	-3.00000E-001	9.93692E-004	5	..........a	-327.66
	1097	219.6	-2.89909E-001	-6.87444E-009	0.00000E+000	-2.90000E-001	1.01949E-003	5	..........a	-327.66
	1098	219.8	-2.79855E-001	-4.56411E-009	0.00000E+000	-2.80000E-001	1.00419E-003	5	..........a	-327.66
	1099	220	-2.69874E-001	-2.31985E-009	0.00000E+000	-2.70000E-001	1.00719E-003	5	..........a	-327.66
	1100	220.2	-2.59811E-001	-7.33962E-011	0.00000E+000	-2.60000E-001	1.00179E-003	5	..........a	-327.66
	1101	220.4	-2.49911E-001	2.14095E-009	0.00000E+000	-2.50000E-001	1.02769E-003	5	..........a	-327.66
	1102	220.6	-2.39943E-001	4.30255E-009	0.00000E+000	-2.40000E-001	1.00539E-003	5	..........a	-327.66
	1103	220.8	-2.29938E-001	6.41157E-009	0.00000E+000	-2.30000E-001	1.01129E-003	5	..........a	-327.66
	1104	221	-2.19888E-001	8.54337E-009	0.00000E+000	-2.20000E-001	1.01839E-003	5	..........a	-327.66
	1105	221.2	-2.09919E-001	1.06583E-008	0.00000E+000	-2.10000E-001	1.00299E-003	5	..........a	-327.66
	1106	221.4	-1.99986E-001	1.27522E-008	0.00000E+000	-2.00000E-001	1.01279E-003	5	..........a	-327.66
	1107	221.6	-1.89982E-001	1.48225E-008	0.00000E+000	-1.90000E-001	1.00029E-003	5	..........a	-327.66
	1108	221.8	-1.79910E-001	1.69363E-008	0.00000E+000	-1.80000E-001	1.00349E-003	5	..........a	-327.66
	1109	222	-1.69906E-001	1.90177E-008	0.00000E+000	-1.70000E-001	1.01679E-003	5	..........a	-327.66
	1110	222.2	-1.59995E-001	2.11150E-008	0.00000E+000	-1.60000E-001	1.01079E-003	5	..........a	-327.66
	1111	222.4	-1.49994E-001	2.32297E-008	0.00000E+000	-1.50000E-001	1.02469E-003	5	..........a	-327.66
	1112	222.6	-1.39898E-001	2.53381E-008	0.00000E+000	-1.40000E-001	1.01279E-003	5	..........a	-327.66
	1113	222.8	-1.29975E-001	2.74678E-008	0.00000E+000	-1.30000E-001	1.03089E-003	5	..........a	-327.66
	1114	223	-1.19961E-001	2.96284E-008	0.00000E+000	-1.20000E-001	1.02119E-003	5	..........a	-327.66
	1115	223.2	-1.09969E-001	3.18015E-008	0.00000E+000	-1.10000E-001	1.02589E-003	5	..........a	-327.66
	1116	223.4	-9.99164E-002	3.40070E-008	0.00000E+000	-1.00000E-001	1.00149E-003	5	..........a	-327.66
	1117	223.6	-8.99063E-002	3.62452E-008	0.00000E+000	-9.00000E-002	1.02819E-003	5	..........a	-327.66
	1118	223.8	-7.99924E-002	3.84994E-008	0.00000E+000	-8.00000E-002	1.02259E-003	5	..........a	-327.66
	1119	224	-6.99312E-002	4.08086E-008	0.00000E+000	-7.00000E-002	1.01009E-003	5	..........a	-327.66
	1120	224.2	-5.98789E-002	4.31769E-008	0.00000E+000	-6.00000E-002	1.00569E-003	5	..........a	-327.66