File: data/raw/batch_data/20240321_ZE_GM0016_HL03_E08_CV50.DTA
EXPLAIN
TAG	CV
TITLE	LABEL	Cyclic Voltammetry	Test &Identifier
DATE	LABEL	3/21/2024	Date
TIME	LABEL	18:14:42	Time
NOTES	NOTES	1	&Notes...

PSTAT	PSTAT	REF600P-43058	Potentiostat
VINIT	POTEN	0.00000E+000	T	Initial &E (V)
VLIMIT1	POTEN	-6.00000E-001	F	Scan Limit &1 (V)
VLIMIT2	POTEN	8.00000E-001	F	Scan Limit &2 (V)
VFINAL	POTEN	0.00000E+000	T	Final &E (V)
SCANRATE	QUANT	4.99999E+001	&Scan Rate (mV/s)
STEPSIZE	QUANT	1.00000E+001	St&ep Size (mV)
CYCLES	IQUANT	4	C&ycles (#)
IMODE	SELECTOR	1	I/E Range &Mode
IRANGE	QUANT	1.00000E-005	&Max Current (mA)
AREA	QUANT	1.00000E+000	Electrode &Area (cm^2)
ELECTRODETYPE	SELECTOR	0	Electrode Type
STRIPPING	TOGGLE	F	Used for Stripping
POLARITY	TOGGLE	F	Signal Polarity
CONDIT	TWOPARAM	F	1.50000E+001	0.00000E+000	Conditionin&g	Time(s)	E(V)
DELAY	TWOPARAM	T	1.00000E+001	0.00000E+000	Init. De&lay	Time(s)	Stab.(mV/s)
EQDELAY	QUANT	1.00000E+001	Equil. &Time (s)
IRCOMP	SELECTOR	0	IRCom&p
PFCOR	QUANT	5.00000E+001	PF Corr. (ohm)
SAMPLINGMODE	SELECTOR	1	Sampling &Mode
OCVCURVE	TABLE	39
	Pt	T	Vf	Vm	Ach	Over	Temp
	#	s	V vs. Ref.	V	V	bits	deg C
	0	0.258333	2.64965E-001	2.64965E-001	2.39222E-004	..........a	-327.66
	1	0.516667	2.64980E-001	2.65759E-001	2.35689E-004	..........a	-327.66
	2	0.775	2.65076E-001	2.66688E-001	2.36622E-004	..........a	-327.66
	3	1.03333	2.65364E-001	2.67735E-001	2.27222E-004	..........a	-327.66
	4	1.29167	2.65912E-001	2.68757E-001	2.28622E-004	..........a	-327.66
	5	1.55	2.66699E-001	2.69751E-001	2.39422E-004	..........a	-327.66
	6	1.80833	2.67630E-001	2.70312E-001	2.17289E-004	..........a	-327.66
	7	2.06667	2.68601E-001	2.71910E-001	2.36089E-004	..........a	-327.66
	8	2.325	2.69580E-001	2.72907E-001	2.31356E-004	..........a	-327.66
	9	2.58333	2.70602E-001	2.74016E-001	2.25756E-004	..........a	-327.66
	10	2.84167	2.71685E-001	2.75040E-001	2.36556E-004	..........a	-327.66
	11	3.1	2.72793E-001	2.76095E-001	2.36422E-004	..........a	-327.66
	12	3.35833	2.73887E-001	2.77106E-001	2.30556E-004	..........a	-327.66
	13	3.61667	2.74955E-001	2.78122E-001	2.21689E-004	..........a	-327.66
	14	3.875	2.76000E-001	2.79216E-001	2.47089E-004	..........a	-327.66
	15	4.13333	2.77034E-001	2.80177E-001	2.30822E-004	..........a	-327.66
	16	4.39167	2.78064E-001	2.81148E-001	2.14822E-004	..........a	-327.66
	17	4.65	2.79088E-001	2.82313E-001	2.38222E-004	..........a	-327.66
	18	4.90833	2.80107E-001	2.83185E-001	2.40356E-004	..........a	-327.66
	19	5.16667	2.81125E-001	2.84169E-001	2.37289E-004	..........a	-327.66
	20	5.425	2.82134E-001	2.85175E-001	2.28822E-004	..........a	-327.66
	21	5.68333	2.83127E-001	2.86145E-001	2.16822E-004	..........a	-327.66
	22	5.94167	2.84112E-001	2.87206E-001	2.30556E-004	..........a	-327.66
	23	6.2	2.85098E-001	2.88120E-001	2.40822E-004	..........a	-327.66
	24	6.45833	2.86088E-001	2.89046E-001	2.32689E-004	..........a	-327.66
	25	6.71667	2.87071E-001	2.90029E-001	2.19022E-004	..........a	-327.66
	26	6.975	2.88038E-001	2.90973E-001	2.18022E-004	..........a	-327.66
	27	7.23333	2.88995E-001	2.91979E-001	2.31822E-004	..........a	-327.66
	28	7.49167	2.89953E-001	2.92901E-001	2.36422E-004	..........a	-327.66
	29	7.75	2.90914E-001	2.93823E-001	2.40156E-004	..........a	-327.66
	30	8.00833	2.91872E-001	2.94806E-001	2.36822E-004	..........a	-327.66
	31	8.26667	2.92820E-001	2.95576E-001	2.26889E-004	..........a	-327.66
	32	8.525	2.93752E-001	2.96490E-001	2.21022E-004	..........a	-327.66
	33	8.78333	2.94662E-001	2.97526E-001	2.35022E-004	..........a	-327.66
	34	9.04167	2.95565E-001	2.98425E-001	2.47489E-004	..........a	-327.66
	35	9.3	2.96480E-001	2.99323E-001	2.28422E-004	..........a	-327.66
	36	9.5583	2.97406E-001	3.00182E-001	2.39956E-004	..........a	-327.66
	37	9.8167	2.98328E-001	3.01079E-001	2.25689E-004	..........a	-327.66
	38	10.075	2.99233E-001	3.01938E-001	2.25556E-004	..........a	-327.66
EOC	QUANT	0.2992329	Open Circuit (V)
PSTATMODEL	IQUANT	7	Pstat Model
PSTATSECTION	LABEL	REF600P-43058	Pstat Section
PSTATSERIALNO	LABEL	43058	Pstat Serial Number
CTRLMODE	IQUANT	1	Control Mode
ELECTROMETER	IQUANT	0	RE=0 or CS=1
IESTAB	IQUANT	2	I/E Stability
CASPEED	IQUANT	4	Control Amp Speed
CONVENTION	IQUANT	1	Current Convention
ICHRANGE	IQUANT	2	Ich Range
ICHRANGEMODE	TOGGLE	F	Ich Auto Range
ICHOFFSETENABLE	TOGGLE	F	Ich Offset Enable
ICHOFFSET	QUANT	0	Ich Offset (V)
ICHFILTER	IQUANT	2	Ich Filter
VCHRANGE	IQUANT	2	Vch Range
VCHRANGEMODE	TOGGLE	F	Vch Auto Range
VCHOFFSETENABLE	TOGGLE	F	Vch Offset Enable
VCHOFFSET	QUANT	0	Vch Offset (V)
VCHFILTER	IQUANT	2	Vch Filter
ACHRANGE	IQUANT	2	Ach Range
ACHOFFSETENABLE	TOGGLE	F	Ach Offset Enable
ACHOFFSET	QUANT	0	Ach Offset (V)
ACHFILTER	IQUANT	1	Ach Filter
IERANGELOWERLIMIT	IQUANT	1	I/E Range Lower Limit
IERANGEMODE	TOGGLE	F	I/E AutoRange
IERANGE	IQUANT	4	I/E Range
POSFEEDENABLE	TOGGLE	F	Positive Feedback IR Comp
POSFEEDRESISTANCE	QUANT	0	Positive Feedback Resistance (ohm)
ACHSELECT	IQUANT	4	Ach Select
SENSECABLEID	IQUANT	7	Sense Cable ID
PWRCABLEID	IQUANT	7	Power Cable ID
DCCALDATE	LABEL	12/18/2023	DC Calibration Date
ACCALDATE	LABEL	12/18/2023	AC Calibration Date
THERMOSELECT	IQUANT	1	Thermo Select
FRAMEWORKVERSION	LABEL	7.8.4	Framework Version
INSTRUMENTVERSION	LABEL	4.42	Instrument Version
CURVE1	TABLE
	Pt	T	Vf	Im	Vu	Sig	Ach	IERange	Over	Temp
	#	s	V vs. Ref.	A	V	V	V	#	bits	deg C
	0	0.2	2.99245E-001	1.16182E-011	0.00000E+000	2.99250E-001	9.98322E-004	4	..........a	-327.66
	3	0.8	2.69243E-001	-1.79869E-011	0.00000E+000	2.69250E-001	9.87222E-004	4	..........a	-327.66
	6	1.4	2.39272E-001	-2.98824E-011	0.00000E+000	2.39250E-001	9.83622E-004	4	..........a	-327.66
	9	2	2.09247E-001	-3.69026E-011	0.00000E+000	2.09250E-001	9.94722E-004	4	..........a	-327.66
	12	2.6	1.79309E-001	-4.02477E-011	0.00000E+000	1.79250E-001	9.75922E-004	4	..........a	-327.66
	15	3.2	1.49311E-001	-4.49159E-011	0.00000E+000	1.49250E-001	9.74522E-004	4	..........a	-327.66
	18	3.8	1.19280E-001	-4.92601E-011	0.00000E+000	1.19250E-001	9.84622E-004	4	..........a	-327.66
	21	4.4	8.93115E-002	-5.31042E-011	0.00000E+000	8.92500E-002	9.78122E-004	4	..........a	-327.66
	24	5	5.93219E-002	-5.61824E-011	0.00000E+000	5.92500E-002	9.75922E-004	4	..........a	-327.66
	27	5.6	2.93646E-002	-6.09155E-011	0.00000E+000	2.92500E-002	9.61522E-004	4	..........a	-327.66
	30	6.2	-7.43609E-004	-6.62247E-011	0.00000E+000	-7.49998E-004	9.75922E-004	4	..........a	-327.66
	33	6.8	-3.06920E-002	-7.08159E-011	0.00000E+000	-3.07500E-002	9.64022E-004	4	..........a	-327.66
	36	7.4	-6.06739E-002	-7.79422E-011	0.00000E+000	-6.07500E-002	1.00052E-003	4	..........a	-327.66
	39	8	-9.06713E-002	-8.58975E-011	0.00000E+000	-9.07500E-002	9.62022E-004	4	..........a	-327.66
	42	8.6	-1.20663E-001	-9.52809E-011	0.00000E+000	-1.20750E-001	9.82422E-004	4	..........a	-327.66
	45	9.2	-1.50721E-001	-1.05818E-010	0.00000E+000	-1.50750E-001	9.78522E-004	4	..........a	-327.66
	48	9.8	-1.80717E-001	-1.19052E-010	0.00000E+000	-1.80750E-001	9.79722E-004	4	..........a	-327.66
	51	10.4	-2.10641E-001	-1.33668E-010	0.00000E+000	-2.10750E-001	9.67822E-004	4	..........a	-327.66
	54	11	-2.40690E-001	-1.49392E-010	0.00000E+000	-2.40750E-001	9.84222E-004	4	..........a	-327.66
	57	11.6	-2.70654E-001	-1.66167E-010	0.00000E+000	-2.70750E-001	1.00052E-003	4	..........a	-327.66
	60	12.2	-3.00683E-001	-1.86189E-010	0.00000E+000	-3.00750E-001	9.67122E-004	4	..........a	-327.66
	63	12.8	-3.30666E-001	-2.08959E-010	0.00000E+000	-3.30750E-001	9.83422E-004	4	..........a	-327.66
	66	13.4	-3.60669E-001	-2.33285E-010	0.00000E+000	-3.60750E-001	9.84522E-004	4	..........a	-327.66
	69	14	-3.90671E-001	-2.62225E-010	0.00000E+000	-3.90750E-001	9.98822E-004	4	..........a	-327.66
	72	14.6	-4.20604E-001	-2.93714E-010	0.00000E+000	-4.20750E-001	9.66722E-004	4	..........a	-327.66
	75	15.2	-4.50613E-001	-3.28574E-010	0.00000E+000	-4.50750E-001	9.88222E-004	4	..........a	-327.66
	78	15.8	-4.80609E-001	-3.69109E-010	0.00000E+000	-4.80750E-001	9.69222E-004	4	..........a	-327.66
	81	16.4	-5.10614E-001	-4.19435E-010	0.00000E+000	-5.10750E-001	9.79622E-004	4	..........a	-327.66
	84	17	-5.40623E-001	-4.73143E-010	0.00000E+000	-5.40750E-001	1.00222E-003	4	..........a	-327.66
	87	17.6	-5.70573E-001	-5.45616E-010	0.00000E+000	-5.70750E-001	9.58722E-004	4	..........a	-327.66
	90	18.2	-6.00634E-001	-6.32605E-010	0.00000E+000	-6.00750E-001	9.70422E-004	4	..........a	-327.66
	93	18.8	-5.70601E-001	-3.45718E-010	0.00000E+000	-5.70750E-001	9.72422E-004	4	..........a	-327.66
	96	19.4	-5.40705E-001	-1.90629E-010	0.00000E+000	-5.40750E-001	9.87122E-004	4	..........a	-327.66
	99	20	-5.10679E-001	-8.78176E-011	0.00000E+000	-5.10750E-001	9.78022E-004	4	..........a	-327.66
	102	20.6	-4.80646E-001	-1.96950E-011	0.00000E+000	-4.80750E-001	9.68922E-004	4	..........a	-327.66
	105	21.2	-4.50606E-001	3.16430E-011	0.00000E+000	-4.50750E-001	9.77522E-004	4	..........a	-327.66
	108	21.8	-4.20772E-001	6.22732E-011	0.00000E+000	-4.20750E-001	9.73522E-004	4	..........a	-327.66
	111	22.4	-3.90687E-001	8.86362E-011	0.00000E+000	-3.90750E-001	9.97622E-004	4	..........a	-327.66
	114	23	-3.60706E-001	1.06884E-010	0.00000E+000	-3.60750E-001	9.78522E-004	4	..........a	-327.66
	117	23.6	-3.30629E-001	1.22346E-010	0.00000E+000	-3.30750E-001	9.82522E-004	4	..........a	-327.66
	120	24.2	-3.00643E-001	1.33259E-010	0.00000E+000	-3.00750E-001	9.84222E-004	4	..........a	-327.66
	123	24.8	-2.70664E-001	1.39702E-010	0.00000E+000	-2.70750E-001	9.91922E-004	4	..........a	-327.66
	126	25.4	-2.40636E-001	1.43689E-010	0.00000E+000	-2.40750E-001	9.82322E-004	4	..........a	-327.66
	129	26	-2.10648E-001	1.47551E-010	0.00000E+000	-2.10750E-001	9.66822E-004	4	..........a	-327.66
	132	26.6	-1.80752E-001	1.45342E-010	0.00000E+000	-1.80750E-001	9.87822E-004	4	..........a	-327.66
	135	27.2	-1.50754E-001	1.42231E-010	0.00000E+000	-1.50750E-001	9.82122E-004	4	..........a	-327.66
	138	27.8	-1.20698E-001	1.40560E-010	0.00000E+000	-1.20750E-001	9.81322E-004	4	..........a	-327.66
	141	28.4	-9.06715E-002	1.37864E-010	0.00000E+000	-9.07500E-002	9.69722E-004	4	..........a	-327.66
	144	29	-6.06435E-002	1.34334E-010	0.00000E+000	-6.07500E-002	9.95222E-004	4	..........a	-327.66
	147	29.6	-3.07391E-002	1.31934E-010	0.00000E+000	-3.07500E-002	9.79722E-004	4	..........a	-327.66
	150	30.2	-6.88009E-004	1.29645E-010	0.00000E+000	-7.49998E-004	9.83122E-004	4	..........a	-327.66
	153	30.8	2.93947E-002	1.27817E-010	0.00000E+000	2.92500E-002	1.00002E-003	4	..........a	-327.66
	156	31.4	5.92963E-002	1.24910E-010	0.00000E+000	5.92500E-002	1.00802E-003	4	..........a	-327.66
	159	32	8.93107E-002	1.23970E-010	0.00000E+000	8.92500E-002	9.91622E-004	4	..........a	-327.66
	162	32.6	1.19274E-001	1.24899E-010	0.00000E+000	1.19250E-001	1.01202E-003	4	..........a	-327.66
	165	33.2	1.49374E-001	1.22713E-010	0.00000E+000	1.49250E-001	9.82822E-004	4	..........a	-327.66
	168	33.8	1.79323E-001	1.27333E-010	0.00000E+000	1.79250E-001	1.00282E-003	4	..........a	-327.66
	171	34.4	2.09228E-001	1.28186E-010	0.00000E+000	2.09250E-001	9.84022E-004	4	..........a	-327.66
	174	35	2.39309E-001	1.31115E-010	0.00000E+000	2.39250E-001	9.99322E-004	4	..........a	-327.66
	177	35.6	2.69466E-001	1.35482E-010	0.00000E+000	2.69250E-001	9.90922E-004	4	..........a	-327.66
	180	36.2	2.99268E-001	1.39578E-010	0.00000E+000	2.99250E-001	1.00062E-003	4	..........a	-327.66
	183	36.8	3.29210E-001	1.44827E-010	0.00000E+000	3.29250E-001	9.96122E-004	4	..........a	-327.66
	186	37.4	3.59350E-001	1.55802E-010	0.00000E+000	3.59250E-001	9.77022E-004	4	..........a	-327.66
	189	38	3.89266E-001	1.56914E-010	0.00000E+000	3.89250E-001	9.83822E-004	4	..........a	-327.66
	192	38.6	4.19279E-001	1.67956E-010	0.00000E+000	4.19250E-001	9.85022E-004	4	..........a	-327.66
	195	39.2	4.49155E-001	1.77643E-010	0.00000E+000	4.49250E-001	1.00342E-003	4	..........a	-327.66
	198	39.8	4.79259E-001	1.91965E-010	0.00000E+000	4.79250E-001	9.85922E-004	4	..........a	-327.66
	201	40.4	5.09295E-001	2.02870E-010	0.00000E+000	5.09250E-001	9.78522E-004	4	..........a	-327.66
	204	41	5.39249E-001	2.18032E-010	0.00000E+000	5.39250E-001	9.97822E-004	4	..........a	-327.66
	207	41.6	5.69154E-001	2.36138E-010	0.00000E+000	5.69250E-001	9.91722E-004	4	..........a	-327.66
	210	42.2	5.99200E-001	2.55291E-010	0.00000E+000	5.99250E-001	1.01832E-003	4	..........a	-327.66
	213	42.8	6.29133E-001	2.76181E-010	0.00000E+000	6.29250E-001	9.82722E-004	4	..........a	-327.66
	216	43.4	6.59072E-001	2.99741E-010	0.00000E+000	6.59250E-001	1.00532E-003	4	..........a	-327.66
	219	44	6.89135E-001	3.25054E-010	0.00000E+000	6.89250E-001	9.78122E-004	4	..........a	-327.66
	222	44.6	7.19224E-001	3.54593E-010	0.00000E+000	7.19250E-001	9.94022E-004	4	..........a	-327.66
	225	45.2	7.49203E-001	3.90488E-010	0.00000E+000	7.49250E-001	9.81322E-004	4	..........a	-327.66
	228	45.8	7.79218E-001	4.37099E-010	0.00000E+000	7.79250E-001	9.73722E-004	4	..........a	-327.66
	230	46.2	7.99239E-001	4.75963E-010	0.00000E+000	7.99250E-001	9.97922E-004	4	..........a	-327.66
CURVE2	TABLE
	Pt	T	Vf	Im	Vu	Sig	Ach	IERange	Over	Temp
	#	s	V vs. Ref.	A	V	V	V	#	bits	deg C
	231	46.4	7.89894E-001	3.56194E-010	0.00000E+000	7.90000E-001	9.73422E-004	4	..........a	-327.66
	234	47	7.59903E-001	1.79207E-010	0.00000E+000	7.60000E-001	9.93522E-004	4	..........a	-327.66
	237	47.6	7.29967E-001	9.35844E-011	0.00000E+000	7.30000E-001	9.95222E-004	4	..........a	-327.66
	240	48.2	6.99976E-001	4.61856E-011	0.00000E+000	7.00000E-001	9.85222E-004	4	..........a	-327.66
	243	48.8	6.69917E-001	1.20793E-011	0.00000E+000	6.70000E-001	9.81022E-004	4	..........a	-327.66
	246	49.4	6.39820E-001	-1.12206E-011	0.00000E+000	6.40000E-001	9.70822E-004	4	..........a	-327.66
	249	50	6.09934E-001	-3.19814E-011	0.00000E+000	6.10000E-001	9.64422E-004	4	..........a	-327.66
	252	50.6	5.80032E-001	-4.35409E-011	0.00000E+000	5.80000E-001	9.75822E-004	4	..........a	-327.66
	255	51.2	5.49999E-001	-5.46883E-011	0.00000E+000	5.50000E-001	9.82822E-004	4	..........a	-327.66
	258	51.8	5.19956E-001	-6.29056E-011	0.00000E+000	5.20000E-001	1.00042E-003	4	..........a	-327.66
	261	52.4	4.90003E-001	-6.98389E-011	0.00000E+000	4.90000E-001	9.89122E-004	4	..........a	-327.66
	264	53	4.60017E-001	-7.43771E-011	0.00000E+000	4.60000E-001	9.89122E-004	4	..........a	-327.66
	267	53.6	4.29904E-001	-7.98153E-011	0.00000E+000	4.30000E-001	9.95322E-004	4	..........a	-327.66
	270	54.2	3.99983E-001	-8.39374E-011	0.00000E+000	4.00000E-001	9.91622E-004	4	..........a	-327.66
	273	54.8	3.70034E-001	-8.67665E-011	0.00000E+000	3.70000E-001	9.94322E-004	4	..........a	-327.66
	276	55.4	3.40072E-001	-9.02757E-011	0.00000E+000	3.40000E-001	9.90422E-004	4	..........a	-327.66
	279	56	3.09969E-001	-9.45978E-011	0.00000E+000	3.10000E-001	1.00652E-003	4	..........a	-327.66
	282	56.6	2.79973E-001	-9.74149E-011	0.00000E+000	2.80000E-001	1.00192E-003	4	..........a	-327.66
	285	57.2	2.50038E-001	-9.99640E-011	0.00000E+000	2.50000E-001	9.85822E-004	4	..........a	-327.66
	288	57.8	2.20057E-001	-1.02334E-010	0.00000E+000	2.20000E-001	9.92722E-004	4	..........a	-327.66
	291	58.4	1.90049E-001	-1.03540E-010	0.00000E+000	1.90000E-001	9.88022E-004	4	..........a	-327.66
	294	59	1.60061E-001	-1.04977E-010	0.00000E+000	1.60000E-001	9.90322E-004	4	..........a	-327.66
	297	59.6	1.30079E-001	-1.06423E-010	0.00000E+000	1.30000E-001	9.73022E-004	4	..........a	-327.66
	300	60.2	1.00031E-001	-1.07914E-010	0.00000E+000	1.00000E-001	9.94522E-004	4	..........a	-327.66
	303	60.8	6.99597E-002	-1.12675E-010	0.00000E+000	7.00000E-002	1.00622E-003	4	..........a	-327.66
	306	61.4	4.01109E-002	-1.16960E-010	0.00000E+000	4.00000E-002	9.82022E-004	4	..........a	-327.66
	309	62	1.00723E-002	-1.23415E-010	0.00000E+000	1.00000E-002	9.81122E-004	4	..........a	-327.66
	312	62.6	-1.99295E-002	-1.30770E-010	0.00000E+000	-2.00000E-002	9.89822E-004	4	..........a	-327.66
	315	63.2	-5.00355E-002	-1.41892E-010	0.00000E+000	-5.00000E-002	9.75922E-004	4	..........a	-327.66
	318	63.8	-7.99440E-002	-1.53094E-010	0.00000E+000	-8.00000E-002	9.81922E-004	4	..........a	-327.66
	321	64.4	-1.09935E-001	-1.66218E-010	0.00000E+000	-1.10000E-001	9.90522E-004	4	..........a	-327.66
	324	65	-1.39961E-001	-1.80273E-010	0.00000E+000	-1.40000E-001	9.95022E-004	4	..........a	-327.66
	327	65.6	-1.69984E-001	-1.94239E-010	0.00000E+000	-1.70000E-001	1.00862E-003	4	..........a	-327.66
	330	66.2	-2.00027E-001	-2.08443E-010	0.00000E+000	-2.00000E-001	1.00842E-003	4	..........a	-327.66
	333	66.8	-2.29966E-001	-2.23165E-010	0.00000E+000	-2.30000E-001	9.99922E-004	4	..........a	-327.66
	336	67.4	-2.59895E-001	-2.39646E-010	0.00000E+000	-2.60000E-001	9.89222E-004	4	..........a	-327.66
	339	68	-2.89970E-001	-2.58680E-010	0.00000E+000	-2.90000E-001	9.93822E-004	4	..........a	-327.66
	342	68.6	-3.19891E-001	-2.79337E-010	0.00000E+000	-3.20000E-001	9.88622E-004	4	..........a	-327.66
	345	69.2	-3.49878E-001	-3.00479E-010	0.00000E+000	-3.50000E-001	9.80322E-004	4	..........a	-327.66
	348	69.8	-3.79875E-001	-3.24146E-010	0.00000E+000	-3.80000E-001	9.91122E-004	4	..........a	-327.66
	351	70.4	-4.09844E-001	-3.48179E-010	0.00000E+000	-4.10000E-001	1.00492E-003	4	..........a	-327.66
	354	71	-4.39841E-001	-3.78412E-010	0.00000E+000	-4.40000E-001	9.92922E-004	4	..........a	-327.66
	357	71.6	-4.69838E-001	-4.13829E-010	0.00000E+000	-4.70000E-001	9.75922E-004	4	..........a	-327.66
	360	72.2	-4.99882E-001	-4.53182E-010	0.00000E+000	-5.00000E-001	9.87122E-004	4	..........a	-327.66
[...]
	965	193.2	-2.49907E-001	1.50715E-010	0.00000E+000	-2.50000E-001	9.82622E-004	4	..........a	-327.66
	968	193.8	-2.19909E-001	1.60869E-010	0.00000E+000	-2.20000E-001	9.92322E-004	4	..........a	-327.66
	971	194.4	-1.90098E-001	1.63194E-010	0.00000E+000	-1.90000E-001	9.98222E-004	4	..........a	-327.66
	974	195	-1.59985E-001	1.64277E-010	0.00000E+000	-1.60000E-001	9.96522E-004	4	..........a	-327.66
	977	195.6	-1.30003E-001	1.64015E-010	0.00000E+000	-1.30000E-001	1.00572E-003	4	..........a	-327.66
	980	196.2	-9.99450E-002	1.57965E-010	0.00000E+000	-1.00000E-001	9.93622E-004	4	..........a	-327.66
	983	196.8	-6.99239E-002	1.56797E-010	0.00000E+000	-7.00000E-002	9.99422E-004	4	..........a	-327.66
	986	197.4	-3.99108E-002	1.59243E-010	0.00000E+000	-4.00000E-002	9.94322E-004	4	..........a	-327.66
	989	198	-9.91416E-003	1.50839E-010	0.00000E+000	-1.00000E-002	9.69522E-004	4	..........a	-327.66
	992	198.6	2.00567E-002	1.50822E-010	0.00000E+000	2.00000E-002	1.00522E-003	4	..........a	-327.66
	995	199.2	5.00546E-002	1.44730E-010	0.00000E+000	5.00000E-002	9.94622E-004	4	..........a	-327.66
	998	199.8	8.00685E-002	1.43265E-010	0.00000E+000	8.00000E-002	9.84322E-004	4	..........a	-327.66
	1001	200.4	1.10046E-001	1.43673E-010	0.00000E+000	1.10000E-001	9.98022E-004	4	..........a	-327.66
	1004	201	1.40102E-001	1.48107E-010	0.00000E+000	1.40000E-001	1.00712E-003	4	..........a	-327.66
	1007	201.6	1.70043E-001	1.48741E-010	0.00000E+000	1.70000E-001	9.99822E-004	4	..........a	-327.66
	1010	202.2	2.00109E-001	1.57766E-010	0.00000E+000	2.00000E-001	9.75922E-004	4	..........a	-327.66
	1013	202.8	2.29935E-001	1.59540E-010	0.00000E+000	2.30000E-001	1.02932E-003	4	..........a	-327.66
	1016	203.4	2.60001E-001	1.63487E-010	0.00000E+000	2.60000E-001	1.01232E-003	4	..........a	-327.66
	1019	204	2.90040E-001	1.69379E-010	0.00000E+000	2.90000E-001	9.87022E-004	4	..........a	-327.66
	1022	204.6	3.20035E-001	1.74099E-010	0.00000E+000	3.20000E-001	1.00132E-003	4	..........a	-327.66
	1025	205.2	3.49975E-001	1.78322E-010	0.00000E+000	3.50000E-001	9.91622E-004	4	..........a	-327.66
	1028	205.8	3.80045E-001	1.81847E-010	0.00000E+000	3.80000E-001	1.02092E-003	4	..........a	-327.66
	1031	206.4	4.09958E-001	1.84861E-010	0.00000E+000	4.10000E-001	9.90122E-004	4	..........a	-327.66
	1034	207	4.40004E-001	1.91246E-010	0.00000E+000	4.40000E-001	1.00322E-003	4	..........a	-327.66
	1037	207.6	4.69971E-001	1.90295E-010	0.00000E+000	4.70000E-001	1.00622E-003	4	..........a	-327.66
	1040	208.2	5.00012E-001	1.95676E-010	0.00000E+000	5.00000E-001	1.01802E-003	4	..........a	-327.66
	1043	208.8	5.30043E-001	2.01444E-010	0.00000E+000	5.30000E-001	9.82922E-004	4	..........a	-327.66
	1046	209.4	5.60003E-001	2.09498E-010	0.00000E+000	5.60000E-001	9.90022E-004	4	..........a	-327.66
	1049	210	5.90004E-001	2.18811E-010	0.00000E+000	5.90000E-001	9.92722E-004	4	..........a	-327.66
	1052	210.6	6.20000E-001	2.33438E-010	0.00000E+000	6.20000E-001	1.00222E-003	4	..........a	-327.66
	1055	211.2	6.49958E-001	2.50531E-010	0.00000E+000	6.50000E-001	9.95222E-004	4	..........a	-327.66
	1058	211.8	6.79950E-001	2.72030E-010	0.00000E+000	6.80000E-001	9.90022E-004	4	..........a	-327.66
	1061	212.4	7.09886E-001	3.00269E-010	0.00000E+000	7.10000E-001	9.93722E-004	4	..........a	-327.66
	1064	213	7.40004E-001	3.37649E-010	0.00000E+000	7.40000E-001	9.79222E-004	4	..........a	-327.66
	1067	213.6	7.69903E-001	3.86751E-010	0.00000E+000	7.70000E-001	9.74322E-004	4	..........a	-327.66
	1070	214.2	7.99921E-001	4.51076E-010	0.00000E+000	8.00000E-001	9.83622E-004	4	..........a	-327.66
CURVE5	TABLE
	Pt	T	Vf	Im	Vu	Sig	Ach	IERange	Over	Temp
	#	s	V vs. Ref.	A	V	V	V	#	bits	deg C
	1071	214.4	7.89902E-001	3.17696E-010	0.00000E+000	7.90000E-001	1.00642E-003	4	..........a	-327.66
	1072	214.6	7.79988E-001	2.35467E-010	0.00000E+000	7.80000E-001	1.00112E-003	4	..........a	-327.66
	1073	214.8	7.69888E-001	1.78946E-010	0.00000E+000	7.70000E-001	9.74022E-004	4	..........a	-327.66
	1074	215	7.59987E-001	1.36455E-010	0.00000E+000	7.60000E-001	1.00302E-003	4	..........a	-327.66
	1075	215.2	7.49970E-001	1.03402E-010	0.00000E+000	7.50000E-001	9.71822E-004	4	..........a	-327.66
	1076	215.4	7.40016E-001	7.63017E-011	0.00000E+000	7.40000E-001	1.02152E-003	4	..........a	-327.66
	1077	215.6	7.29964E-001	5.57039E-011	0.00000E+000	7.30000E-001	9.91822E-004	4	..........a	-327.66
	1078	215.8	7.19891E-001	3.76342E-011	0.00000E+000	7.20000E-001	9.85022E-004	4	..........a	-327.66
	1079	216	7.09949E-001	2.40237E-011	0.00000E+000	7.10000E-001	1.00532E-003	4	..........a	-327.66
	1080	216.2	6.99978E-001	1.16402E-011	0.00000E+000	7.00000E-001	1.00592E-003	4	..........a	-327.66
	1081	216.4	6.89853E-001	1.17184E-012	0.00000E+000	6.90000E-001	9.71422E-004	4	..........a	-327.66
	1082	216.6	6.79825E-001	-7.51349E-012	0.00000E+000	6.80000E-001	9.85922E-004	4	..........a	-327.66
	1083	216.8	6.69897E-001	-1.52558E-011	0.00000E+000	6.70000E-001	9.74422E-004	4	..........a	-327.66
	1084	217	6.60012E-001	-2.15230E-011	0.00000E+000	6.60000E-001	1.01712E-003	4	..........a	-327.66
	1085	217.2	6.49948E-001	-2.64942E-011	0.00000E+000	6.50000E-001	9.86222E-004	4	..........a	-327.66
	1086	217.4	6.39953E-001	-3.26525E-011	0.00000E+000	6.40000E-001	9.89622E-004	4	..........a	-327.66
	1087	217.6	6.29948E-001	-3.72356E-011	0.00000E+000	6.30000E-001	9.89222E-004	4	..........a	-327.66
	1088	217.8	6.19992E-001	-3.99287E-011	0.00000E+000	6.20000E-001	9.98622E-004	4	..........a	-327.66
	1089	218	6.09937E-001	-4.35579E-011	0.00000E+000	6.10000E-001	9.78922E-004	4	..........a	-327.66
	1090	218.2	5.99989E-001	-4.74920E-011	0.00000E+000	6.00000E-001	9.81322E-004	4	..........a	-327.66
	1091	218.4	5.89928E-001	-5.05871E-011	0.00000E+000	5.90000E-001	9.97822E-004	4	..........a	-327.66
	1092	218.6	5.80023E-001	-5.31482E-011	0.00000E+000	5.80000E-001	9.91922E-004	4	..........a	-327.66
	1093	218.8	5.69995E-001	-5.53863E-011	0.00000E+000	5.70000E-001	1.00322E-003	4	..........a	-327.66
	1094	219	5.59982E-001	-5.78534E-011	0.00000E+000	5.60000E-001	1.00342E-003	4	..........a	-327.66
	1095	219.2	5.49955E-001	-6.08595E-011	0.00000E+000	5.50000E-001	9.93722E-004	4	..........a	-327.66
	1096	219.4	5.40009E-001	-6.36006E-011	0.00000E+000	5.40000E-001	1.00372E-003	4	..........a	-327.66
	1097	219.6	5.29945E-001	-6.52697E-011	0.00000E+000	5.30000E-001	9.97922E-004	4	..........a	-327.66
	1098	219.8	5.19945E-001	-6.83408E-011	0.00000E+000	5.20000E-001	9.92122E-004	4	..........a	-327.66
	1099	220	5.09976E-001	-6.95259E-011	0.00000E+000	5.10000E-001	1.00372E-003	4	..........a	-327.66
	1100	220.2	5.00068E-001	-7.11899E-011	0.00000E+000	5.00000E-001	9.88822E-004	4	..........a	-327.66
	1101	220.4	4.89986E-001	-7.35390E-011	0.00000E+000	4.90000E-001	9.87422E-004	4	..........a	-327.66
	1102	220.6	4.79924E-001	-7.55071E-011	0.00000E+000	4.80000E-001	1.01152E-003	4	..........a	-327.66
	1103	220.8	4.69952E-001	-7.74392E-011	0.00000E+000	4.70000E-001	9.93822E-004	4	..........a	-327.66
	1104	221	4.60019E-001	-7.93302E-011	0.00000E+000	4.60000E-001	9.98522E-004	4	..........a	-327.66
	1105	221.2	4.49956E-001	-8.17243E-011	0.00000E+000	4.50000E-001	9.66622E-004	4	..........a	-327.66
	1106	221.4	4.39933E-001	-8.42304E-011	0.00000E+000	4.40000E-001	1.00022E-003	4	..........a	-327.66
	1107	221.6	4.29979E-001	-8.53865E-011	0.00000E+000	4.30000E-001	9.91722E-004	4	..........a	-327.66
	1108	221.8	4.20027E-001	-8.68605E-011	0.00000E+000	4.20000E-001	9.93122E-004	4	..........a	-327.66
	1109	222	4.09968E-001	-8.99957E-011	0.00000E+000	4.10000E-001	9.97622E-004	4	..........a	-327.66
	1110	222.2	4.00013E-001	-9.13597E-011	0.00000E+000	4.00000E-001	1.00282E-003	4	..........a	-327.66
	1111	222.4	3.89974E-001	-9.43178E-011	0.00000E+000	3.90000E-001	9.95322E-004	4	..........a	-327.66
	1112	222.6	3.80021E-001	-9.57129E-011	0.00000E+000	3.80000E-001	9.83522E-004	4	..........a	-327.66
	1113	222.8	3.70008E-001	-9.72559E-011	0.00000E+000	3.70000E-001	9.97222E-004	4	..........a	-327.66
	1114	223	3.60019E-001	-1.00127E-010	0.00000E+000	3.60000E-001	9.95122E-004	4	..........a	-327.66
	1115	223.2	3.50025E-001	-1.01750E-010	0.00000E+000	3.50000E-001	9.99822E-004	4	..........a	-327.66
	1116	223.4	3.40056E-001	-1.02406E-010	0.00000E+000	3.40000E-001	9.94022E-004	4	..........a	-327.66
	1117	223.6	3.30032E-001	-1.04325E-010	0.00000E+000	3.30000E-001	9.88822E-004	4	..........a	-327.66
	1118	223.8	3.20004E-001	-1.05846E-010	0.00000E+000	3.20000E-001	1.00132E-003	4	..........a	-327.66
	1119	224	3.09981E-001	-1.08159E-010	0.00000E+000	3.10000E-001	1.01202E-003	4	..........a	-327.66
	1120	224.2	3.00044E-001	-1.09458E-010	0.00000E+000	3.00000E-001	1.01992E-003	4	..........a	-327.66