File: data/raw/batch_data/20240321_ZR_GM0016_HL03_E11_CV50k.DTA
EXPLAIN
TAG	CV
TITLE	LABEL	Cyclic Voltammetry	Test &Identifier
DATE	LABEL	3/21/2024	Date
TIME	LABEL	18:59:33	Time
NOTES	NOTES	1	&Notes...

PSTAT	PSTAT	REF600P-43058	Potentiostat
VINIT	POTEN	0.00000E+000	T	Initial &E (V)
VLIMIT1	POTEN	-6.00000E-001	F	Scan Limit &1 (V)
VLIMIT2	POTEN	8.00000E-001	F	Scan Limit &2 (V)
VFINAL	POTEN	0.00000E+000	T	Final &E (V)
SCANRATE	QUANT	4.99999E+004	&Scan Rate (mV/s)
STEPSIZE	QUANT	1.00000E+001	St&ep Size (mV)
CYCLES	IQUANT	10	C&ycles (#)
IMODE	SELECTOR	1	I/E Range &Mode
IRANGE	QUANT	1.00000E-005	&Max Current (mA)
AREA	QUANT	1.00000E+000	Electrode &Area (cm^2)
ELECTRODETYPE	SELECTOR	0	Electrode Type
STRIPPING	TOGGLE	F	Used for Stripping
POLARITY	TOGGLE	F	Signal Polarity
CONDIT	TWOPARAM	F	1.50000E+001	0.00000E+000	Conditionin&g	Time(s)	E(V)
DELAY	TWOPARAM	T	1.00000E+001	0.00000E+000	Init. De&lay	Time(s)	Stab.(mV/s)
EQDELAY	QUANT	1.00000E+001	Equil. &Time (s)
IRCOMP	SELECTOR	0	IRCom&p
PFCOR	QUANT	5.00000E+001	PF Corr. (ohm)
SAMPLINGMODE	SELECTOR	1	Sampling &Mode
OCVCURVE	TABLE	39
	Pt	T	Vf	Vm	Ach	Over	Temp
	#	s	V vs. Ref.	V	V	bits	deg C
	0	0.258333	3.36919E-001	3.36919E-001	2.56822E-004	..........a	-327.66
	1	0.516667	3.36922E-001	3.37103E-001	2.54156E-004	..........a	-327.66
	2	0.775	3.36944E-001	3.37317E-001	2.39622E-004	..........a	-327.66
	3	1.03333	3.37011E-001	3.37538E-001	2.52289E-004	..........a	-327.66
	4	1.29167	3.37135E-001	3.37767E-001	2.39756E-004	..........a	-327.66
	5	1.55	3.37310E-001	3.37927E-001	2.41422E-004	..........a	-327.66
	6	1.80833	3.37514E-001	3.38218E-001	2.48289E-004	..........a	-327.66
	7	2.06667	3.37730E-001	3.38442E-001	2.51356E-004	..........a	-327.66
	8	2.325	3.37952E-001	3.38596E-001	2.57022E-004	..........a	-327.66
	9	2.58333	3.38174E-001	3.38754E-001	2.55489E-004	..........a	-327.66
	10	2.84167	3.38385E-001	3.38974E-001	2.38289E-004	..........a	-327.66
	11	3.1	3.38580E-001	3.39190E-001	2.57622E-004	..........a	-327.66
	12	3.35833	3.38770E-001	3.39405E-001	2.48156E-004	..........a	-327.66
	13	3.61667	3.38967E-001	3.39587E-001	2.38889E-004	..........a	-327.66
	14	3.875	3.39172E-001	3.39866E-001	2.39689E-004	..........a	-327.66
	15	4.13333	3.39383E-001	3.40044E-001	2.50756E-004	..........a	-327.66
	16	4.39167	3.39598E-001	3.40202E-001	2.38422E-004	..........a	-327.66
	17	4.65	3.39810E-001	3.40372E-001	2.28356E-004	..........a	-327.66
	18	4.90833	3.40008E-001	3.40593E-001	2.32422E-004	..........a	-327.66
	19	5.16667	3.40196E-001	3.40799E-001	2.31156E-004	..........a	-327.66
	20	5.425	3.40384E-001	3.41005E-001	2.41289E-004	..........a	-327.66
	21	5.68333	3.40579E-001	3.41197E-001	2.44156E-004	..........a	-327.66
	22	5.94167	3.40781E-001	3.41456E-001	2.36689E-004	..........a	-327.66
	23	6.2	3.40989E-001	3.41655E-001	2.45556E-004	..........a	-327.66
	24	6.45833	3.41202E-001	3.41808E-001	2.40556E-004	..........a	-327.66
	25	6.71667	3.41412E-001	3.41984E-001	2.40022E-004	..........a	-327.66
	26	6.975	3.41612E-001	3.42193E-001	2.27289E-004	..........a	-327.66
	27	7.23333	3.41801E-001	3.42394E-001	2.48956E-004	..........a	-327.66
	28	7.49167	3.41989E-001	3.42609E-001	2.28622E-004	..........a	-327.66
	29	7.75	3.42182E-001	3.42785E-001	2.32089E-004	..........a	-327.66
	30	8.00833	3.42381E-001	3.43029E-001	2.33489E-004	..........a	-327.66
	31	8.26667	3.42584E-001	3.43228E-001	2.44022E-004	..........a	-327.66
	32	8.525	3.42790E-001	3.43390E-001	2.38356E-004	..........a	-327.66
	33	8.78333	3.42994E-001	3.43554E-001	2.31422E-004	..........a	-327.66
	34	9.04167	3.43190E-001	3.43776E-001	2.18822E-004	..........a	-327.66
	35	9.3	3.43378E-001	3.43966E-001	2.42822E-004	..........a	-327.66
	36	9.5583	3.43565E-001	3.44174E-001	2.41956E-004	..........a	-327.66
	37	9.8167	3.43756E-001	3.44323E-001	2.37489E-004	..........a	-327.66
	38	10.075	3.43950E-001	3.44580E-001	2.26356E-004	..........a	-327.66
EOC	QUANT	0.3439499	Open Circuit (V)
PSTATMODEL	IQUANT	7	Pstat Model
PSTATSECTION	LABEL	REF600P-43058	Pstat Section
PSTATSERIALNO	LABEL	43058	Pstat Serial Number
CTRLMODE	IQUANT	1	Control Mode
ELECTROMETER	IQUANT	0	RE=0 or CS=1
IESTAB	IQUANT	2	I/E Stability
CASPEED	IQUANT	4	Control Amp Speed
CONVENTION	IQUANT	1	Current Convention
ICHRANGE	IQUANT	2	Ich Range
ICHRANGEMODE	TOGGLE	F	Ich Auto Range
ICHOFFSETENABLE	TOGGLE	F	Ich Offset Enable
ICHOFFSET	QUANT	0	Ich Offset (V)
ICHFILTER	IQUANT	1	Ich Filter
VCHRANGE	IQUANT	2	Vch Range
VCHRANGEMODE	TOGGLE	F	Vch Auto Range
VCHOFFSETENABLE	TOGGLE	F	Vch Offset Enable
VCHOFFSET	QUANT	0	Vch Offset (V)
VCHFILTER	IQUANT	1	Vch Filter
ACHRANGE	IQUANT	2	Ach Range
ACHOFFSETENABLE	TOGGLE	F	Ach Offset Enable
ACHOFFSET	QUANT	0	Ach Offset (V)
ACHFILTER	IQUANT	1	Ach Filter
IERANGELOWERLIMIT	IQUANT	1	I/E Range Lower Limit
IERANGEMODE	TOGGLE	F	I/E AutoRange
IERANGE	IQUANT	4	I/E Range
POSFEEDENABLE	TOGGLE	F	Positive Feedback IR Comp
POSFEEDRESISTANCE	QUANT	0	Positive Feedback Resistance (ohm)
ACHSELECT	IQUANT	4	Ach Select
SENSECABLEID	IQUANT	7	Sense Cable ID
PWRCABLEID	IQUANT	7	Power Cable ID
DCCALDATE	LABEL	12/18/2023	DC Calibration Date
ACCALDATE	LABEL	12/18/2023	AC Calibration Date
THERMOSELECT	IQUANT	1	Thermo Select
FRAMEWORKVERSION	LABEL	7.8.4	Framework Version
INSTRUMENTVERSION	LABEL	4.42	Instrument Version
CURVE1	TABLE
	Pt	T	Vf	Im	Vu	Sig	Ach	IERange	Over	Temp
	#	s	V vs. Ref.	A	V	V	V	#	bits	deg C
	0	0.0002	3.43970E-001	2.47886E-011	0.00000E+000	3.43950E-001	8.00223E-005	4	..........a	-327.66
	3	0.0008	3.13970E-001	-1.00216E-010	0.00000E+000	3.13950E-001	8.00223E-005	4	..........a	-327.66
	6	0.0014	2.83970E-001	-2.47222E-010	0.00000E+000	2.83950E-001	8.00223E-005	4	..........a	-327.66
	9	0.002	2.53970E-001	-4.02228E-010	0.00000E+000	2.53950E-001	8.00223E-005	4	..........a	-327.66
	12	0.0026	2.23770E-001	-5.76235E-010	0.00000E+000	2.23950E-001	8.00223E-005	4	..........a	-327.66
	15	0.0032	1.93870E-001	-7.62242E-010	0.00000E+000	1.93950E-001	8.00223E-005	4	..........a	-327.66
	18	0.0038	1.64070E-001	-9.68250E-010	0.00000E+000	1.63950E-001	8.00223E-005	4	..........a	-327.66
	21	0.0044	1.34070E-001	-1.19326E-009	0.00000E+000	1.33950E-001	8.00223E-005	4	..........a	-327.66
	24	0.005	1.03970E-001	-1.44427E-009	0.00000E+000	1.03950E-001	8.00223E-005	4	..........a	-327.66
	27	0.0056	7.39695E-002	-1.70128E-009	0.00000E+000	7.39500E-002	8.00223E-005	4	..........a	-327.66
	30	0.0062	4.37695E-002	-1.99429E-009	0.00000E+000	4.39500E-002	8.00223E-005	4	..........a	-327.66
	33	0.0068	1.40695E-002	-2.30830E-009	0.00000E+000	1.39500E-002	8.00223E-005	4	..........a	-327.66
	36	0.0074	-1.60305E-002	-2.65031E-009	0.00000E+000	-1.60500E-002	-4.19978E-004	4	..........a	-327.66
	39	0.008	-4.59305E-002	-3.01233E-009	0.00000E+000	-4.60500E-002	-1.19978E-004	4	..........a	-327.66
	42	0.0086	-7.60305E-002	-3.39634E-009	0.00000E+000	-7.60500E-002	8.00223E-005	4	..........a	-327.66
	45	0.0092	-1.05930E-001	-3.79436E-009	0.00000E+000	-1.06050E-001	8.00223E-005	4	..........a	-327.66
	48	0.0098	-1.36230E-001	-4.21037E-009	0.00000E+000	-1.36050E-001	8.00223E-005	4	..........a	-327.66
	51	0.0104	-1.66030E-001	-4.64639E-009	0.00000E+000	-1.66050E-001	8.00223E-005	4	..........a	-327.66
	54	0.011	-1.95930E-001	-5.08641E-009	0.00000E+000	-1.96050E-001	8.00223E-005	4	..........a	-327.66
	57	0.0116	-2.25930E-001	-5.53843E-009	0.00000E+000	-2.26050E-001	-1.19978E-004	4	..........a	-327.66
	60	0.0122	-2.55930E-001	-5.98344E-009	0.00000E+000	-2.56050E-001	8.00223E-005	4	..........a	-327.66
	63	0.0128	-2.85930E-001	-6.45646E-009	0.00000E+000	-2.86050E-001	8.00223E-005	4	..........a	-327.66
	66	0.0134	-3.15930E-001	-6.92448E-009	0.00000E+000	-3.16050E-001	8.00223E-005	4	..........a	-327.66
	69	0.014	-3.45930E-001	-7.39850E-009	0.00000E+000	-3.46050E-001	8.00223E-005	4	..........a	-327.66
	72	0.0146	-3.76030E-001	-7.87552E-009	0.00000E+000	-3.76050E-001	8.00223E-005	4	..........a	-327.66
	75	0.0152	-4.06030E-001	-8.36253E-009	0.00000E+000	-4.06050E-001	8.00223E-005	4	..........a	-327.66
	78	0.0158	-4.36030E-001	-8.84555E-009	0.00000E+000	-4.36050E-001	8.00223E-005	4	..........a	-327.66
	81	0.0164	-4.65830E-001	-9.34057E-009	0.00000E+000	-4.66050E-001	8.00223E-005	4	..........a	-327.66
	84	0.017	-4.95830E-001	-9.84059E-009	0.00000E+000	-4.96050E-001	8.00223E-005	4	..........a	-327.66
	87	0.0176	-5.25930E-001	-1.03466E-008	0.00000E+000	-5.26050E-001	8.00223E-005	4	..........a	-327.66
	90	0.0182	-5.55830E-001	-1.08746E-008	0.00000E+000	-5.56050E-001	8.00223E-005	4	..........a	-327.66
	93	0.0188	-5.85930E-001	-1.14207E-008	0.00000E+000	-5.86050E-001	8.00223E-005	4	..........a	-327.66
	96	0.0194	-5.75830E-001	-1.17007E-008	0.00000E+000	-5.76050E-001	8.00223E-005	4	..........a	-327.66
	99	0.02	-5.45931E-001	-1.17227E-008	0.00000E+000	-5.46050E-001	8.00223E-005	4	..........a	-327.66
	102	0.0206	-5.15731E-001	-1.16647E-008	0.00000E+000	-5.16050E-001	8.00223E-005	4	..........a	-327.66
	105	0.0212	-4.86030E-001	-1.15587E-008	0.00000E+000	-4.86050E-001	8.00223E-005	4	..........a	-327.66
	108	0.0218	-4.55830E-001	-1.14167E-008	0.00000E+000	-4.56050E-001	8.00223E-005	4	..........a	-327.66
	111	0.0224	-4.25930E-001	-1.12556E-008	0.00000E+000	-4.26050E-001	8.00223E-005	4	..........a	-327.66
	114	0.023	-3.95730E-001	-1.10776E-008	0.00000E+000	-3.96050E-001	8.00223E-005	4	..........a	-327.66
	117	0.0236	-3.65930E-001	-1.08866E-008	0.00000E+000	-3.66050E-001	8.00223E-005	4	..........a	-327.66
	120	0.0242	-3.35830E-001	-1.06786E-008	0.00000E+000	-3.36050E-001	8.00223E-005	4	..........a	-327.66
	123	0.0248	-3.06030E-001	-1.04626E-008	0.00000E+000	-3.06050E-001	8.00223E-005	4	..........a	-327.66
	126	0.0254	-2.75930E-001	-1.02346E-008	0.00000E+000	-2.76050E-001	8.00223E-005	4	..........a	-327.66
	129	0.026	-2.46030E-001	-1.00026E-008	0.00000E+000	-2.46050E-001	8.00223E-005	4	..........a	-327.66
	132	0.0266	-2.15830E-001	-9.76259E-009	0.00000E+000	-2.16050E-001	8.00223E-005	4	..........a	-327.66
	135	0.0272	-1.85930E-001	-9.51158E-009	0.00000E+000	-1.86050E-001	-2.19978E-004	4	..........a	-327.66
	138	0.0278	-1.55930E-001	-9.25857E-009	0.00000E+000	-1.56050E-001	8.00223E-005	4	..........a	-327.66
	141	0.0284	-1.26030E-001	-8.99656E-009	0.00000E+000	-1.26050E-001	8.00223E-005	4	..........a	-327.66
	144	0.029	-9.60305E-002	-8.73355E-009	0.00000E+000	-9.60500E-002	8.00223E-005	4	..........a	-327.66
	147	0.0296	-6.61805E-002	-8.45854E-009	0.00000E+000	-6.60500E-002	8.00223E-005	4	..........a	-327.66
	150	0.0302	-3.58305E-002	-8.17853E-009	0.00000E+000	-3.60500E-002	8.00223E-005	4	..........a	-327.66
	153	0.0308	-5.93048E-003	-7.89652E-009	0.00000E+000	-6.05000E-003	8.00223E-005	4	..........a	-327.66
	156	0.0314	2.40695E-002	-7.60750E-009	0.00000E+000	2.39500E-002	8.00223E-005	4	..........a	-327.66
	159	0.032	5.39195E-002	-7.31349E-009	0.00000E+000	5.39500E-002	8.00223E-005	4	..........a	-327.66
	162	0.0326	8.40695E-002	-7.01048E-009	0.00000E+000	8.39500E-002	8.00223E-005	4	..........a	-327.66
	165	0.0332	1.14070E-001	-6.70447E-009	0.00000E+000	1.13950E-001	8.00223E-005	4	..........a	-327.66
	168	0.0338	1.44170E-001	-6.38846E-009	0.00000E+000	1.43950E-001	8.00223E-005	4	..........a	-327.66
	171	0.0344	1.73970E-001	-6.06545E-009	0.00000E+000	1.73950E-001	8.00223E-005	4	..........a	-327.66
	174	0.035	2.04070E-001	-5.73643E-009	0.00000E+000	2.03950E-001	8.00223E-005	4	..........a	-327.66
	177	0.0356	2.33870E-001	-5.40342E-009	0.00000E+000	2.33950E-001	-2.19978E-004	4	..........a	-327.66
	180	0.0362	2.63970E-001	-5.04841E-009	0.00000E+000	2.63950E-001	8.00223E-005	4	..........a	-327.66
	183	0.0368	2.93970E-001	-4.68839E-009	0.00000E+000	2.93950E-001	8.00223E-005	4	..........a	-327.66
	186	0.0374	3.24270E-001	-4.32138E-009	0.00000E+000	3.23950E-001	8.00223E-005	4	..........a	-327.66
	189	0.038	3.54070E-001	-3.93636E-009	0.00000E+000	3.53950E-001	8.00223E-005	4	..........a	-327.66
	192	0.0386	3.83770E-001	-3.55035E-009	0.00000E+000	3.83950E-001	8.00223E-005	4	..........a	-327.66
	195	0.0392	4.14070E-001	-3.14833E-009	0.00000E+000	4.13950E-001	8.00223E-005	4	..........a	-327.66
	198	0.0398	4.43870E-001	-2.73332E-009	0.00000E+000	4.43950E-001	8.00223E-005	4	..........a	-327.66
	201	0.0404	4.73920E-001	-2.30330E-009	0.00000E+000	4.73950E-001	8.00223E-005	4	..........a	-327.66
	204	0.041	5.04070E-001	-1.85828E-009	0.00000E+000	5.03950E-001	8.00223E-005	4	..........a	-327.66
	207	0.0416	5.33969E-001	-1.39927E-009	0.00000E+000	5.33950E-001	-4.19978E-004	4	..........a	-327.66
	210	0.0422	5.63670E-001	-9.14248E-010	0.00000E+000	5.63950E-001	8.00223E-005	4	..........a	-327.66
	213	0.0428	5.93969E-001	-4.09228E-010	0.00000E+000	5.93950E-001	8.00223E-005	4	..........a	-327.66
	216	0.0434	6.23869E-001	1.32793E-010	0.00000E+000	6.23950E-001	8.00223E-005	4	..........a	-327.66
	219	0.044	6.53969E-001	6.92814E-010	0.00000E+000	6.53950E-001	8.00223E-005	4	..........a	-327.66
	222	0.0446	6.84069E-001	1.29084E-009	0.00000E+000	6.83950E-001	8.00223E-005	4	..........a	-327.66
	225	0.0452	7.13969E-001	1.91686E-009	0.00000E+000	7.13950E-001	8.00223E-005	4	..........a	-327.66
	228	0.0458	7.43869E-001	2.59289E-009	0.00000E+000	7.43950E-001	8.00223E-005	4	..........a	-327.66
	231	0.0464	7.73869E-001	3.29191E-009	0.00000E+000	7.73950E-001	8.00223E-005	4	..........a	-327.66
	234	0.047	8.03970E-001	4.05194E-009	0.00000E+000	8.03950E-001	8.00223E-005	4	..........a	-327.66
CURVE2	TABLE
	Pt	T	Vf	Im	Vu	Sig	Ach	IERange	Over	Temp
	#	s	V vs. Ref.	A	V	V	V	#	bits	deg C
	235	0.0472	7.89869E-001	4.16195E-009	0.00000E+000	7.90000E-001	8.00223E-005	4	..........a	-327.66
	238	0.0478	7.59869E-001	4.35195E-009	0.00000E+000	7.60000E-001	8.00223E-005	4	..........a	-327.66
	241	0.0484	7.29869E-001	4.39996E-009	0.00000E+000	7.30000E-001	8.00223E-005	4	..........a	-327.66
	244	0.049	6.99869E-001	4.36295E-009	0.00000E+000	7.00000E-001	8.00223E-005	4	..........a	-327.66
	247	0.0496	6.69869E-001	4.26895E-009	0.00000E+000	6.70000E-001	8.00223E-005	4	..........a	-327.66
	250	0.0502	6.39870E-001	4.14595E-009	0.00000E+000	6.40000E-001	8.00223E-005	4	..........a	-327.66
	253	0.0508	6.09969E-001	3.99194E-009	0.00000E+000	6.10000E-001	8.00223E-005	4	..........a	-327.66
	256	0.0514	5.79870E-001	3.81993E-009	0.00000E+000	5.80000E-001	-4.19978E-004	4	..........a	-327.66
	259	0.052	5.49869E-001	3.62893E-009	0.00000E+000	5.50000E-001	8.00223E-005	4	..........a	-327.66
	262	0.0526	5.19870E-001	3.42192E-009	0.00000E+000	5.20000E-001	8.00223E-005	4	..........a	-327.66
	265	0.0532	4.89970E-001	3.20791E-009	0.00000E+000	4.90000E-001	8.00223E-005	4	..........a	-327.66
	268	0.0538	4.59970E-001	2.97190E-009	0.00000E+000	4.60000E-001	8.00223E-005	4	..........a	-327.66
	271	0.0544	4.29870E-001	2.72789E-009	0.00000E+000	4.30000E-001	8.00223E-005	4	..........a	-327.66
	274	0.055	3.99970E-001	2.46588E-009	0.00000E+000	4.00000E-001	8.00223E-005	4	..........a	-327.66
	277	0.0556	3.70070E-001	2.18887E-009	0.00000E+000	3.70000E-001	8.00223E-005	4	..........a	-327.66
	280	0.0562	3.39770E-001	1.90286E-009	0.00000E+000	3.40000E-001	8.00223E-005	4	..........a	-327.66
	283	0.0568	3.09870E-001	1.59585E-009	0.00000E+000	3.10000E-001	8.00223E-005	4	..........a	-327.66
	286	0.0574	2.79970E-001	1.27284E-009	0.00000E+000	2.80000E-001	8.00223E-005	4	..........a	-327.66
	289	0.058	2.49870E-001	9.33823E-010	0.00000E+000	2.50000E-001	8.00223E-005	4	..........a	-327.66
	292	0.0586	2.19220E-001	5.66809E-010	0.00000E+000	2.20000E-001	8.00223E-005	4	..........a	-327.66
	295	0.0592	1.90070E-001	1.87795E-010	0.00000E+000	1.90000E-001	8.00223E-005	4	..........a	-327.66
	298	0.0598	1.60020E-001	-2.11220E-010	0.00000E+000	1.60000E-001	8.00223E-005	4	..........a	-327.66
	301	0.0604	1.30070E-001	-6.28236E-010	0.00000E+000	1.30000E-001	8.00223E-005	4	..........a	-327.66
	304	0.061	1.00070E-001	-1.05325E-009	0.00000E+000	1.00000E-001	8.00223E-005	4	..........a	-327.66
	307	0.0616	6.99695E-002	-1.49027E-009	0.00000E+000	7.00000E-002	8.00223E-005	4	..........a	-327.66
	310	0.0622	4.00695E-002	-1.93529E-009	0.00000E+000	4.00000E-002	8.00223E-005	4	..........a	-327.66
	313	0.0628	1.00695E-002	-2.37830E-009	0.00000E+000	1.00000E-002	-1.19978E-004	4	..........a	-327.66
	316	0.0634	-1.98305E-002	-2.82632E-009	0.00000E+000	-2.00000E-002	8.00223E-005	4	..........a	-327.66
	319	0.064	-5.00305E-002	-3.25634E-009	0.00000E+000	-5.00000E-002	8.00223E-005	4	..........a	-327.66
	322	0.0646	-8.00305E-002	-3.68235E-009	0.00000E+000	-8.00000E-002	8.00223E-005	4	..........a	-327.66
	325	0.0652	-1.10230E-001	-4.09837E-009	0.00000E+000	-1.10000E-001	8.00223E-005	4	..........a	-327.66
	328	0.0658	-1.39830E-001	-4.50439E-009	0.00000E+000	-1.40000E-001	-3.19978E-004	4	..........a	-327.66
	331	0.0664	-1.69830E-001	-4.89840E-009	0.00000E+000	-1.70000E-001	8.00223E-005	4	..........a	-327.66
	334	0.067	-1.99830E-001	-5.27741E-009	0.00000E+000	-2.00000E-001	8.00223E-005	4	..........a	-327.66
	337	0.0676	-2.29830E-001	-5.65643E-009	0.00000E+000	-2.30000E-001	8.00223E-005	4	..........a	-327.66
	340	0.0682	-2.59730E-001	-6.01644E-009	0.00000E+000	-2.60000E-001	8.00223E-005	4	..........a	-327.66
	343	0.0688	-2.90030E-001	-6.38246E-009	0.00000E+000	-2.90000E-001	8.00223E-005	4	..........a	-327.66
	346	0.0694	-3.19930E-001	-6.74347E-009	0.00000E+000	-3.20000E-001	8.00223E-005	4	..........a	-327.66
	349	0.07	-3.49830E-001	-7.10849E-009	0.00000E+000	-3.50000E-001	8.00223E-005	4	..........a	-327.66
	352	0.0706	-3.79830E-001	-7.46050E-009	0.00000E+000	-3.80000E-001	8.00223E-005	4	..........a	-327.66
[...]
	2640	0.5282	-3.39730E-001	-6.54246E-009	0.00000E+000	-3.40000E-001	8.00223E-005	4	..........a	-327.66
	2643	0.5288	-3.09830E-001	-6.34046E-009	0.00000E+000	-3.10000E-001	8.00223E-005	4	..........a	-327.66
	2646	0.5294	-2.80030E-001	-6.13045E-009	0.00000E+000	-2.80000E-001	8.00223E-005	4	..........a	-327.66
	2649	0.53	-2.49930E-001	-5.91744E-009	0.00000E+000	-2.50000E-001	8.00223E-005	4	..........a	-327.66
	2652	0.5306	-2.19930E-001	-5.68943E-009	0.00000E+000	-2.20000E-001	8.00223E-005	4	..........a	-327.66
	2655	0.5312	-1.90330E-001	-5.45642E-009	0.00000E+000	-1.90000E-001	-2.19978E-004	4	..........a	-327.66
	2658	0.5318	-1.60030E-001	-5.22141E-009	0.00000E+000	-1.60000E-001	8.00223E-005	4	..........a	-327.66
	2661	0.5324	-1.30030E-001	-4.98540E-009	0.00000E+000	-1.30000E-001	8.00223E-005	4	..........a	-327.66
	2664	0.533	-9.99305E-002	-4.73839E-009	0.00000E+000	-1.00000E-001	8.00223E-005	4	..........a	-327.66
	2667	0.5336	-7.00305E-002	-4.48438E-009	0.00000E+000	-7.00000E-002	8.00223E-005	4	..........a	-327.66
	2670	0.5342	-3.99305E-002	-4.23738E-009	0.00000E+000	-4.00000E-002	8.00223E-005	4	..........a	-327.66
	2673	0.5348	-9.93048E-003	-3.97137E-009	0.00000E+000	-1.00000E-002	8.00223E-005	4	..........a	-327.66
	2676	0.5354	2.01695E-002	-3.71136E-009	0.00000E+000	2.00000E-002	8.00223E-005	4	..........a	-327.66
	2679	0.536	5.00695E-002	-3.44034E-009	0.00000E+000	5.00000E-002	8.00223E-005	4	..........a	-327.66
	2682	0.5366	7.99695E-002	-3.15833E-009	0.00000E+000	8.00000E-002	8.00223E-005	4	..........a	-327.66
	2685	0.5372	1.10070E-001	-2.87932E-009	0.00000E+000	1.10000E-001	8.00223E-005	4	..........a	-327.66
	2688	0.5378	1.39970E-001	-2.59031E-009	0.00000E+000	1.40000E-001	8.00223E-005	4	..........a	-327.66
	2691	0.5384	1.70070E-001	-2.29130E-009	0.00000E+000	1.70000E-001	8.00223E-005	4	..........a	-327.66
	2694	0.539	1.99870E-001	-1.97829E-009	0.00000E+000	2.00000E-001	8.00223E-005	4	..........a	-327.66
	2697	0.5396	2.29970E-001	-1.66028E-009	0.00000E+000	2.30000E-001	8.00223E-005	4	..........a	-327.66
	2700	0.5402	2.60070E-001	-1.33026E-009	0.00000E+000	2.60000E-001	-2.19978E-004	4	..........a	-327.66
	2703	0.5408	2.90070E-001	-9.86250E-010	0.00000E+000	2.90000E-001	8.00223E-005	4	..........a	-327.66
	2706	0.5414	3.19870E-001	-6.32237E-010	0.00000E+000	3.20000E-001	8.00223E-005	4	..........a	-327.66
	2709	0.542	3.50070E-001	-2.62222E-010	0.00000E+000	3.50000E-001	8.00223E-005	4	..........a	-327.66
	2712	0.5426	3.79870E-001	1.24792E-010	0.00000E+000	3.80000E-001	8.00223E-005	4	..........a	-327.66
	2715	0.5432	4.09870E-001	5.22808E-010	0.00000E+000	4.10000E-001	-2.19978E-004	4	..........a	-327.66
	2718	0.5438	4.39770E-001	9.36824E-010	0.00000E+000	4.40000E-001	8.00223E-005	4	..........a	-327.66
	2721	0.5444	4.69970E-001	1.36384E-009	0.00000E+000	4.70000E-001	8.00223E-005	4	..........a	-327.66
	2724	0.545	5.00269E-001	1.81186E-009	0.00000E+000	5.00000E-001	8.00223E-005	4	..........a	-327.66
	2727	0.5456	5.29869E-001	2.27287E-009	0.00000E+000	5.30000E-001	8.00223E-005	4	..........a	-327.66
	2730	0.5462	5.59969E-001	2.75589E-009	0.00000E+000	5.60000E-001	8.00223E-005	4	..........a	-327.66
	2733	0.5468	5.89969E-001	3.27191E-009	0.00000E+000	5.90000E-001	8.00223E-005	4	..........a	-327.66
	2736	0.5474	6.19969E-001	3.80393E-009	0.00000E+000	6.20000E-001	8.00223E-005	4	..........a	-327.66
	2739	0.548	6.49870E-001	4.37496E-009	0.00000E+000	6.50000E-001	8.00223E-005	4	..........a	-327.66
	2742	0.5486	6.79869E-001	4.96298E-009	0.00000E+000	6.80000E-001	8.00223E-005	4	..........a	-327.66
	2745	0.5492	7.10069E-001	5.58900E-009	0.00000E+000	7.10000E-001	8.00223E-005	4	..........a	-327.66
	2748	0.5498	7.39969E-001	6.24403E-009	0.00000E+000	7.40000E-001	8.00223E-005	4	..........a	-327.66
	2751	0.5504	7.69969E-001	6.94505E-009	0.00000E+000	7.70000E-001	8.00223E-005	4	..........a	-327.66
	2754	0.551	8.00069E-001	7.68208E-009	0.00000E+000	8.00000E-001	8.00223E-005	4	..........a	-327.66
CURVE11	TABLE
	Pt	T	Vf	Im	Vu	Sig	Ach	IERange	Over	Temp
	#	s	V vs. Ref.	A	V	V	V	#	bits	deg C
	2755	0.5512	7.89869E-001	7.81009E-009	0.00000E+000	7.90000E-001	8.00223E-005	4	..........a	-327.66
	2756	0.5514	7.79969E-001	7.90009E-009	0.00000E+000	7.80000E-001	8.00223E-005	4	..........a	-327.66
	2757	0.5516	7.69870E-001	7.96509E-009	0.00000E+000	7.70000E-001	8.00223E-005	4	..........a	-327.66
	2758	0.5518	7.59869E-001	8.00610E-009	0.00000E+000	7.60000E-001	8.00223E-005	4	..........a	-327.66
	2759	0.552	7.49869E-001	8.03110E-009	0.00000E+000	7.50000E-001	8.00223E-005	4	..........a	-327.66
	2760	0.5522	7.39869E-001	8.04610E-009	0.00000E+000	7.40000E-001	8.00223E-005	4	..........a	-327.66
	2761	0.5524	7.29819E-001	8.04310E-009	0.00000E+000	7.30000E-001	8.00223E-005	4	..........a	-327.66
	2762	0.5526	7.19869E-001	8.03510E-009	0.00000E+000	7.20000E-001	-4.19978E-004	4	..........a	-327.66
	2763	0.5528	7.09870E-001	8.01910E-009	0.00000E+000	7.10000E-001	8.00223E-005	4	..........a	-327.66
	2764	0.553	7.00069E-001	7.99309E-009	0.00000E+000	7.00000E-001	8.00223E-005	4	..........a	-327.66
	2765	0.5532	6.89819E-001	7.96109E-009	0.00000E+000	6.90000E-001	8.00223E-005	4	..........a	-327.66
	2766	0.5534	6.79669E-001	7.92809E-009	0.00000E+000	6.80000E-001	8.00223E-005	4	..........a	-327.66
	2767	0.5536	6.69869E-001	7.88209E-009	0.00000E+000	6.70000E-001	-2.19978E-004	4	..........a	-327.66
	2768	0.5538	6.59869E-001	7.84209E-009	0.00000E+000	6.60000E-001	8.00223E-005	4	..........a	-327.66
	2769	0.554	6.49969E-001	7.79409E-009	0.00000E+000	6.50000E-001	8.00223E-005	4	..........a	-327.66
	2770	0.5542	6.39870E-001	7.73808E-009	0.00000E+000	6.40000E-001	8.00223E-005	4	..........a	-327.66
	2771	0.5544	6.29969E-001	7.68208E-009	0.00000E+000	6.30000E-001	-3.19978E-004	4	..........a	-327.66
	2772	0.5546	6.19869E-001	7.62808E-009	0.00000E+000	6.20000E-001	8.00223E-005	4	..........a	-327.66
	2773	0.5548	6.09869E-001	7.56408E-009	0.00000E+000	6.10000E-001	8.00223E-005	4	..........a	-327.66
	2774	0.555	5.99970E-001	7.50308E-009	0.00000E+000	6.00000E-001	8.00223E-005	4	..........a	-327.66
	2775	0.5552	5.89819E-001	7.43407E-009	0.00000E+000	5.90000E-001	8.00223E-005	4	..........a	-327.66
	2776	0.5554	5.80069E-001	7.36407E-009	0.00000E+000	5.80000E-001	8.00223E-005	4	..........a	-327.66
	2777	0.5556	5.70069E-001	7.30107E-009	0.00000E+000	5.70000E-001	8.00223E-005	4	..........a	-327.66
	2778	0.5558	5.59969E-001	7.22807E-009	0.00000E+000	5.60000E-001	8.00223E-005	4	..........a	-327.66
	2779	0.556	5.50070E-001	7.15606E-009	0.00000E+000	5.50000E-001	8.00223E-005	4	..........a	-327.66
	2780	0.5562	5.40069E-001	7.08006E-009	0.00000E+000	5.40000E-001	8.00223E-005	4	..........a	-327.66
	2781	0.5564	5.29869E-001	7.00206E-009	0.00000E+000	5.30000E-001	8.00223E-005	4	..........a	-327.66
	2782	0.5566	5.19870E-001	6.92505E-009	0.00000E+000	5.20000E-001	8.00223E-005	4	..........a	-327.66
	2783	0.5568	5.10069E-001	6.84205E-009	0.00000E+000	5.10000E-001	8.00223E-005	4	..........a	-327.66
	2784	0.557	5.00219E-001	6.75905E-009	0.00000E+000	5.00000E-001	8.00223E-005	4	..........a	-327.66
	2785	0.5572	4.90070E-001	6.67704E-009	0.00000E+000	4.90000E-001	8.00223E-005	4	..........a	-327.66
	2786	0.5574	4.80020E-001	6.59204E-009	0.00000E+000	4.80000E-001	8.00223E-005	4	..........a	-327.66
	2787	0.5576	4.69870E-001	6.50504E-009	0.00000E+000	4.70000E-001	8.00223E-005	4	..........a	-327.66
	2788	0.5578	4.59970E-001	6.41503E-009	0.00000E+000	4.60000E-001	8.00223E-005	4	..........a	-327.66
	2789	0.558	4.49670E-001	6.32503E-009	0.00000E+000	4.50000E-001	8.00223E-005	4	..........a	-327.66
	2790	0.5582	4.39970E-001	6.23603E-009	0.00000E+000	4.40000E-001	8.00223E-005	4	..........a	-327.66
	2791	0.5584	4.29870E-001	6.13802E-009	0.00000E+000	4.30000E-001	8.00223E-005	4	..........a	-327.66
	2792	0.5586	4.19870E-001	6.04302E-009	0.00000E+000	4.20000E-001	8.00223E-005	4	..........a	-327.66
	2793	0.5588	4.10070E-001	5.94402E-009	0.00000E+000	4.10000E-001	8.00223E-005	4	..........a	-327.66
	2794	0.559	4.00070E-001	5.84701E-009	0.00000E+000	4.00000E-001	8.00223E-005	4	..........a	-327.66
	2795	0.5592	3.89970E-001	5.74401E-009	0.00000E+000	3.90000E-001	8.00223E-005	4	..........a	-327.66
	2796	0.5594	3.80020E-001	5.63900E-009	0.00000E+000	3.80000E-001	8.00223E-005	4	..........a	-327.66
	2797	0.5596	3.69770E-001	5.53100E-009	0.00000E+000	3.70000E-001	8.00223E-005	4	..........a	-327.66
	2798	0.5598	3.60070E-001	5.42800E-009	0.00000E+000	3.60000E-001	8.00223E-005	4	..........a	-327.66
	2799	0.56	3.50070E-001	5.31799E-009	0.00000E+000	3.50000E-001	8.00223E-005	4	..........a	-327.66
	2800	0.5602	3.39870E-001	5.20599E-009	0.00000E+000	3.40000E-001	8.00223E-005	4	..........a	-327.66