File: data/raw/batch_data/20240321_O_GM0016_HL03_E04_CV50.DTA
EXPLAIN
TAG	CV
TITLE	LABEL	Cyclic Voltammetry	Test &Identifier
DATE	LABEL	3/21/2024	Date
TIME	LABEL	17:09:26	Time
NOTES	NOTES	1	&Notes...

PSTAT	PSTAT	REF600P-43058	Potentiostat
VINIT	POTEN	0.00000E+000	T	Initial &E (V)
VLIMIT1	POTEN	-6.00000E-001	F	Scan Limit &1 (V)
VLIMIT2	POTEN	8.00000E-001	F	Scan Limit &2 (V)
VFINAL	POTEN	0.00000E+000	T	Final &E (V)
SCANRATE	QUANT	4.99999E+001	&Scan Rate (mV/s)
STEPSIZE	QUANT	1.00000E+001	St&ep Size (mV)
CYCLES	IQUANT	4	C&ycles (#)
IMODE	SELECTOR	1	I/E Range &Mode
IRANGE	QUANT	1.00000E-005	&Max Current (mA)
AREA	QUANT	1.00000E+000	Electrode &Area (cm^2)
ELECTRODETYPE	SELECTOR	0	Electrode Type
STRIPPING	TOGGLE	F	Used for Stripping
POLARITY	TOGGLE	F	Signal Polarity
CONDIT	TWOPARAM	F	1.50000E+001	0.00000E+000	Conditionin&g	Time(s)	E(V)
DELAY	TWOPARAM	T	1.00000E+001	0.00000E+000	Init. De&lay	Time(s)	Stab.(mV/s)
EQDELAY	QUANT	1.00000E+001	Equil. &Time (s)
IRCOMP	SELECTOR	0	IRCom&p
PFCOR	QUANT	5.00000E+001	PF Corr. (ohm)
SAMPLINGMODE	SELECTOR	1	Sampling &Mode
OCVCURVE	TABLE	39
	Pt	T	Vf	Vm	Ach	Over	Temp
	#	s	V vs. Ref.	V	V	bits	deg C
	0	0.258333	3.55990E-001	3.55990E-001	2.51556E-004	..........a	-327.66
	1	0.516667	3.55992E-001	3.56087E-001	2.45956E-004	..........a	-327.66
	2	0.775	3.56008E-001	3.56393E-001	2.29156E-004	..........a	-327.66
	3	1.03333	3.56066E-001	3.56767E-001	2.42489E-004	..........a	-327.66
	4	1.29167	3.56203E-001	3.57052E-001	2.36822E-004	..........a	-327.66
	5	1.55	3.56431E-001	3.57573E-001	2.50689E-004	..........a	-327.66
	6	1.80833	3.56732E-001	3.57722E-001	2.50089E-004	..........a	-327.66
	7	2.06667	3.57072E-001	3.58030E-001	2.35489E-004	..........a	-327.66
	8	2.325	3.57410E-001	3.58404E-001	2.49556E-004	..........a	-327.66
	9	2.58333	3.57731E-001	3.58685E-001	2.36489E-004	..........a	-327.66
	10	2.84167	3.58047E-001	3.59204E-001	2.51422E-004	..........a	-327.66
	11	3.1	3.58376E-001	3.59406E-001	2.38756E-004	..........a	-327.66
	12	3.35833	3.58722E-001	3.59729E-001	2.32222E-004	..........a	-327.66
	13	3.61667	3.59067E-001	3.60058E-001	2.52956E-004	..........a	-327.66
	14	3.875	3.59398E-001	3.60380E-001	2.49956E-004	..........a	-327.66
	15	4.13333	3.59720E-001	3.60820E-001	2.49556E-004	..........a	-327.66
	16	4.39167	3.60048E-001	3.61039E-001	2.40822E-004	..........a	-327.66
	17	4.65	3.60384E-001	3.61385E-001	2.39356E-004	..........a	-327.66
	18	4.90833	3.60718E-001	3.61736E-001	2.54822E-004	..........a	-327.66
	19	5.16667	3.61048E-001	3.62146E-001	2.32556E-004	..........a	-327.66
	20	5.425	3.61383E-001	3.62445E-001	2.52089E-004	..........a	-327.66
	21	5.68333	3.61727E-001	3.62698E-001	2.33422E-004	..........a	-327.66
	22	5.94167	3.62068E-001	3.63068E-001	2.39622E-004	..........a	-327.66
	23	6.2	3.62396E-001	3.63421E-001	2.37622E-004	..........a	-327.66
	24	6.45833	3.62721E-001	3.63820E-001	2.36822E-004	..........a	-327.66
	25	6.71667	3.63057E-001	3.64119E-001	2.55089E-004	..........a	-327.66
	26	6.975	3.63402E-001	3.64358E-001	2.32422E-004	..........a	-327.66
	27	7.23333	3.63742E-001	3.64736E-001	2.39689E-004	..........a	-327.66
	28	7.49167	3.64067E-001	3.65051E-001	2.36489E-004	..........a	-327.66
	29	7.75	3.64386E-001	3.65475E-001	2.40022E-004	..........a	-327.66
	30	8.00833	3.64713E-001	3.65729E-001	2.41822E-004	..........a	-327.66
	31	8.26667	3.65050E-001	3.66034E-001	2.34689E-004	..........a	-327.66
	32	8.525	3.65385E-001	3.66353E-001	2.38889E-004	..........a	-327.66
	33	8.78333	3.65708E-001	3.66688E-001	2.30222E-004	..........a	-327.66
	34	9.04167	3.66025E-001	3.67104E-001	2.32022E-004	..........a	-327.66
	35	9.3	3.66350E-001	3.67375E-001	2.41022E-004	..........a	-327.66
	36	9.5583	3.66685E-001	3.67660E-001	2.30489E-004	..........a	-327.66
	37	9.8167	3.67019E-001	3.67996E-001	2.50689E-004	..........a	-327.66
	38	10.075	3.67342E-001	3.68288E-001	2.42289E-004	..........a	-327.66
EOC	QUANT	0.3673421	Open Circuit (V)
PSTATMODEL	IQUANT	7	Pstat Model
PSTATSECTION	LABEL	REF600P-43058	Pstat Section
PSTATSERIALNO	LABEL	43058	Pstat Serial Number
CTRLMODE	IQUANT	1	Control Mode
ELECTROMETER	IQUANT	0	RE=0 or CS=1
IESTAB	IQUANT	2	I/E Stability
CASPEED	IQUANT	4	Control Amp Speed
CONVENTION	IQUANT	1	Current Convention
ICHRANGE	IQUANT	2	Ich Range
ICHRANGEMODE	TOGGLE	F	Ich Auto Range
ICHOFFSETENABLE	TOGGLE	F	Ich Offset Enable
ICHOFFSET	QUANT	0	Ich Offset (V)
ICHFILTER	IQUANT	2	Ich Filter
VCHRANGE	IQUANT	2	Vch Range
VCHRANGEMODE	TOGGLE	F	Vch Auto Range
VCHOFFSETENABLE	TOGGLE	F	Vch Offset Enable
VCHOFFSET	QUANT	0	Vch Offset (V)
VCHFILTER	IQUANT	2	Vch Filter
ACHRANGE	IQUANT	2	Ach Range
ACHOFFSETENABLE	TOGGLE	F	Ach Offset Enable
ACHOFFSET	QUANT	0	Ach Offset (V)
ACHFILTER	IQUANT	1	Ach Filter
IERANGELOWERLIMIT	IQUANT	1	I/E Range Lower Limit
IERANGEMODE	TOGGLE	F	I/E AutoRange
IERANGE	IQUANT	4	I/E Range
POSFEEDENABLE	TOGGLE	F	Positive Feedback IR Comp
POSFEEDRESISTANCE	QUANT	0	Positive Feedback Resistance (ohm)
ACHSELECT	IQUANT	4	Ach Select
SENSECABLEID	IQUANT	7	Sense Cable ID
PWRCABLEID	IQUANT	7	Power Cable ID
DCCALDATE	LABEL	12/18/2023	DC Calibration Date
ACCALDATE	LABEL	12/18/2023	AC Calibration Date
THERMOSELECT	IQUANT	1	Thermo Select
FRAMEWORKVERSION	LABEL	7.8.4	Framework Version
INSTRUMENTVERSION	LABEL	4.42	Instrument Version
CURVE1	TABLE
	Pt	T	Vf	Im	Vu	Sig	Ach	IERange	Over	Temp
	#	s	V vs. Ref.	A	V	V	V	#	bits	deg C
	0	0.2	3.67348E-001	1.19943E-011	0.00000E+000	3.67350E-001	9.84922E-004	4	..........a	-327.66
	3	0.8	3.37338E-001	-4.68720E-011	0.00000E+000	3.37350E-001	9.76222E-004	4	..........a	-327.66
	6	1.4	3.07321E-001	-6.25546E-011	0.00000E+000	3.07350E-001	9.88822E-004	4	..........a	-327.66
	9	2	2.77379E-001	-7.48281E-011	0.00000E+000	2.77350E-001	9.71722E-004	4	..........a	-327.66
	12	2.6	2.47305E-001	-8.51125E-011	0.00000E+000	2.47350E-001	9.79722E-004	4	..........a	-327.66
	15	3.2	2.17364E-001	-9.18107E-011	0.00000E+000	2.17350E-001	9.82422E-004	4	..........a	-327.66
	18	3.8	1.87382E-001	-9.80940E-011	0.00000E+000	1.87350E-001	9.79822E-004	4	..........a	-327.66
	21	4.4	1.57434E-001	-1.01119E-010	0.00000E+000	1.57350E-001	9.81922E-004	4	..........a	-327.66
	24	5	1.27368E-001	-1.03906E-010	0.00000E+000	1.27350E-001	9.95922E-004	4	..........a	-327.66
	27	5.6	9.73285E-002	-1.05527E-010	0.00000E+000	9.73500E-002	9.83722E-004	4	..........a	-327.66
	30	6.2	6.73871E-002	-1.07838E-010	0.00000E+000	6.73500E-002	9.86122E-004	4	..........a	-327.66
	33	6.8	3.74196E-002	-1.10415E-010	0.00000E+000	3.73500E-002	9.91322E-004	4	..........a	-327.66
	36	7.4	7.39399E-003	-1.13784E-010	0.00000E+000	7.35001E-003	9.79022E-004	4	..........a	-327.66
	39	8	-2.26523E-002	-1.17165E-010	0.00000E+000	-2.26500E-002	1.00852E-003	4	..........a	-327.66
	42	8.6	-5.26197E-002	-1.22725E-010	0.00000E+000	-5.26500E-002	9.75022E-004	4	..........a	-327.66
	45	9.2	-8.25415E-002	-1.32654E-010	0.00000E+000	-8.26500E-002	9.80622E-004	4	..........a	-327.66
	48	9.8	-1.12662E-001	-1.43972E-010	0.00000E+000	-1.12650E-001	9.74322E-004	4	..........a	-327.66
	51	10.4	-1.42622E-001	-1.58545E-010	0.00000E+000	-1.42650E-001	9.76522E-004	4	..........a	-327.66
	54	11	-1.72630E-001	-1.77071E-010	0.00000E+000	-1.72650E-001	9.82322E-004	4	..........a	-327.66
	57	11.6	-2.02592E-001	-2.00955E-010	0.00000E+000	-2.02650E-001	9.72222E-004	4	..........a	-327.66
	60	12.2	-2.32597E-001	-2.32287E-010	0.00000E+000	-2.32650E-001	1.00582E-003	4	..........a	-327.66
	63	12.8	-2.62606E-001	-2.73436E-010	0.00000E+000	-2.62650E-001	1.00902E-003	4	..........a	-327.66
	66	13.4	-2.92589E-001	-3.25465E-010	0.00000E+000	-2.92650E-001	9.85922E-004	4	..........a	-327.66
	69	14	-3.22555E-001	-3.90943E-010	0.00000E+000	-3.22650E-001	9.84522E-004	4	..........a	-327.66
	72	14.6	-3.52580E-001	-4.69000E-010	0.00000E+000	-3.52650E-001	9.90322E-004	4	..........a	-327.66
	75	15.2	-3.82573E-001	-5.61547E-010	0.00000E+000	-3.82650E-001	9.87522E-004	4	..........a	-327.66
	78	15.8	-4.12563E-001	-6.68460E-010	0.00000E+000	-4.12650E-001	9.95322E-004	4	..........a	-327.66
	81	16.4	-4.42424E-001	-7.91250E-010	0.00000E+000	-4.42650E-001	1.01342E-003	4	..........a	-327.66
	84	17	-4.72537E-001	-9.29444E-010	0.00000E+000	-4.72650E-001	9.89222E-004	4	..........a	-327.66
	87	17.6	-5.02553E-001	-1.09201E-009	0.00000E+000	-5.02650E-001	9.85522E-004	4	..........a	-327.66
	90	18.2	-5.32578E-001	-1.28361E-009	0.00000E+000	-5.32650E-001	9.85622E-004	4	..........a	-327.66
	93	18.8	-5.62501E-001	-1.51252E-009	0.00000E+000	-5.62650E-001	1.00052E-003	4	..........a	-327.66
	96	19.4	-5.92539E-001	-1.80472E-009	0.00000E+000	-5.92650E-001	9.84722E-004	4	..........a	-327.66
	99	20	-5.82586E-001	-1.47496E-009	0.00000E+000	-5.82650E-001	9.97122E-004	4	..........a	-327.66
	102	20.6	-5.52586E-001	-1.05653E-009	0.00000E+000	-5.52650E-001	9.80722E-004	4	..........a	-327.66
	105	21.2	-5.22442E-001	-7.66484E-010	0.00000E+000	-5.22650E-001	1.00012E-003	4	..........a	-327.66
	108	21.8	-4.92559E-001	-5.50983E-010	0.00000E+000	-4.92650E-001	9.74822E-004	4	..........a	-327.66
	111	22.4	-4.62555E-001	-3.83740E-010	0.00000E+000	-4.62650E-001	9.87522E-004	4	..........a	-327.66
	114	23	-4.32576E-001	-2.51303E-010	0.00000E+000	-4.32650E-001	9.95222E-004	4	..........a	-327.66
	117	23.6	-4.02534E-001	-1.47375E-010	0.00000E+000	-4.02650E-001	9.84722E-004	4	..........a	-327.66
	120	24.2	-3.72588E-001	-6.56477E-011	0.00000E+000	-3.72650E-001	9.81422E-004	4	..........a	-327.66
	123	24.8	-3.42658E-001	-2.05628E-012	0.00000E+000	-3.42650E-001	9.80922E-004	4	..........a	-327.66
	126	25.4	-3.12588E-001	4.69636E-011	0.00000E+000	-3.12650E-001	9.87122E-004	4	..........a	-327.66
	129	26	-2.82524E-001	8.43230E-011	0.00000E+000	-2.82650E-001	1.00532E-003	4	..........a	-327.66
	132	26.6	-2.52590E-001	1.10001E-010	0.00000E+000	-2.52650E-001	9.72822E-004	4	..........a	-327.66
	135	27.2	-2.22604E-001	1.27875E-010	0.00000E+000	-2.22650E-001	1.00012E-003	4	..........a	-327.66
	138	27.8	-1.92603E-001	1.37740E-010	0.00000E+000	-1.92650E-001	9.82322E-004	4	..........a	-327.66
	141	28.4	-1.62510E-001	1.41823E-010	0.00000E+000	-1.62650E-001	9.98222E-004	4	..........a	-327.66
	144	29	-1.32643E-001	1.42860E-010	0.00000E+000	-1.32650E-001	9.93722E-004	4	..........a	-327.66
	147	29.6	-1.02688E-001	1.43410E-010	0.00000E+000	-1.02650E-001	1.01292E-003	4	..........a	-327.66
	150	30.2	-7.26143E-002	1.42284E-010	0.00000E+000	-7.26500E-002	9.80822E-004	4	..........a	-327.66
	153	30.8	-4.25878E-002	1.41885E-010	0.00000E+000	-4.26500E-002	9.61122E-004	4	..........a	-327.66
	156	31.4	-1.26233E-002	1.44547E-010	0.00000E+000	-1.26500E-002	9.89622E-004	4	..........a	-327.66
	159	32	1.73453E-002	1.42393E-010	0.00000E+000	1.73500E-002	9.91522E-004	4	..........a	-327.66
	162	32.6	4.73551E-002	1.42807E-010	0.00000E+000	4.73500E-002	1.00402E-003	4	..........a	-327.66
	165	33.2	7.74219E-002	1.48730E-010	0.00000E+000	7.73500E-002	9.78622E-004	4	..........a	-327.66
	168	33.8	1.07399E-001	1.50904E-010	0.00000E+000	1.07350E-001	9.98222E-004	4	..........a	-327.66
	171	34.4	1.37405E-001	1.60565E-010	0.00000E+000	1.37350E-001	9.99622E-004	4	..........a	-327.66
	174	35	1.67405E-001	1.68828E-010	0.00000E+000	1.67350E-001	1.01822E-003	4	..........a	-327.66
	177	35.6	1.97491E-001	1.79752E-010	0.00000E+000	1.97350E-001	9.82922E-004	4	..........a	-327.66
	180	36.2	2.27345E-001	1.88748E-010	0.00000E+000	2.27350E-001	9.88122E-004	4	..........a	-327.66
	183	36.8	2.57329E-001	1.97409E-010	0.00000E+000	2.57350E-001	9.94722E-004	4	..........a	-327.66
	186	37.4	2.87373E-001	2.05573E-010	0.00000E+000	2.87350E-001	9.94222E-004	4	..........a	-327.66
	189	38	3.17405E-001	2.11805E-010	0.00000E+000	3.17350E-001	9.77522E-004	4	..........a	-327.66
	192	38.6	3.46998E-001	2.15627E-010	0.00000E+000	3.47350E-001	1.01542E-003	4	..........a	-327.66
	195	39.2	3.77298E-001	2.20628E-010	0.00000E+000	3.77350E-001	1.01882E-003	4	..........a	-327.66
	198	39.8	4.07307E-001	2.25940E-010	0.00000E+000	4.07350E-001	1.00652E-003	4	..........a	-327.66
	201	40.4	4.37371E-001	2.35099E-010	0.00000E+000	4.37350E-001	9.91922E-004	4	..........a	-327.66
	204	41	4.67230E-001	2.45345E-010	0.00000E+000	4.67350E-001	1.00672E-003	4	..........a	-327.66
	207	41.6	4.97237E-001	2.57821E-010	0.00000E+000	4.97350E-001	9.91022E-004	4	..........a	-327.66
	210	42.2	5.27305E-001	2.72593E-010	0.00000E+000	5.27350E-001	1.00092E-003	4	..........a	-327.66
	213	42.8	5.57438E-001	2.89236E-010	0.00000E+000	5.57350E-001	1.00012E-003	4	..........a	-327.66
	216	43.4	5.87267E-001	3.06420E-010	0.00000E+000	5.87350E-001	9.98222E-004	4	..........a	-327.66
	219	44	6.17197E-001	3.25405E-010	0.00000E+000	6.17350E-001	1.00672E-003	4	..........a	-327.66
	222	44.6	6.47311E-001	3.46689E-010	0.00000E+000	6.47350E-001	1.00122E-003	4	..........a	-327.66
	225	45.2	6.77279E-001	3.71289E-010	0.00000E+000	6.77350E-001	9.86322E-004	4	..........a	-327.66
	228	45.8	7.07335E-001	4.01401E-010	0.00000E+000	7.07350E-001	1.00492E-003	4	..........a	-327.66
	231	46.4	7.37261E-001	4.40395E-010	0.00000E+000	7.37350E-001	1.00342E-003	4	..........a	-327.66
	234	47	7.67241E-001	4.89334E-010	0.00000E+000	7.67350E-001	1.02322E-003	4	..........a	-327.66
	237	47.6	7.97307E-001	5.50385E-010	0.00000E+000	7.97350E-001	9.95522E-004	4	..........a	-327.66
CURVE2	TABLE
	Pt	T	Vf	Im	Vu	Sig	Ach	IERange	Over	Temp
	#	s	V vs. Ref.	A	V	V	V	#	bits	deg C
	238	47.8	7.89951E-001	4.09979E-010	0.00000E+000	7.90000E-001	9.81122E-004	4	..........a	-327.66
	241	48.4	7.59871E-001	1.79484E-010	0.00000E+000	7.60000E-001	9.99522E-004	4	..........a	-327.66
	244	49	7.29955E-001	7.75438E-011	0.00000E+000	7.30000E-001	9.86722E-004	4	..........a	-327.66
	247	49.6	6.99975E-001	1.92535E-011	0.00000E+000	7.00000E-001	1.01242E-003	4	..........a	-327.66
	250	50.2	6.69923E-001	-2.02640E-011	0.00000E+000	6.70000E-001	1.00632E-003	4	..........a	-327.66
	253	50.8	6.39916E-001	-4.61970E-011	0.00000E+000	6.40000E-001	1.02852E-003	4	..........a	-327.66
	256	51.4	6.09946E-001	-6.54417E-011	0.00000E+000	6.10000E-001	1.01102E-003	4	..........a	-327.66
	259	52	5.80019E-001	-7.83732E-011	0.00000E+000	5.80000E-001	1.02952E-003	4	..........a	-327.66
	262	52.6	5.49968E-001	-9.00117E-011	0.00000E+000	5.50000E-001	9.86422E-004	4	..........a	-327.66
	265	53.2	5.19946E-001	-9.94930E-011	0.00000E+000	5.20000E-001	9.91422E-004	4	..........a	-327.66
	268	53.8	4.89952E-001	-1.07734E-010	0.00000E+000	4.90000E-001	9.98722E-004	4	..........a	-327.66
	271	54.4	4.60015E-001	-1.14238E-010	0.00000E+000	4.60000E-001	1.00772E-003	4	..........a	-327.66
	274	55	4.29966E-001	-1.20569E-010	0.00000E+000	4.30000E-001	9.93722E-004	4	..........a	-327.66
	277	55.6	3.99974E-001	-1.27387E-010	0.00000E+000	4.00000E-001	1.00842E-003	4	..........a	-327.66
	280	56.2	3.70007E-001	-1.32654E-010	0.00000E+000	3.70000E-001	1.00242E-003	4	..........a	-327.66
	283	56.8	3.40044E-001	-1.37969E-010	0.00000E+000	3.40000E-001	9.84322E-004	4	..........a	-327.66
	286	57.4	3.09973E-001	-1.42510E-010	0.00000E+000	3.10000E-001	9.90822E-004	4	..........a	-327.66
	289	58	2.79967E-001	-1.45612E-010	0.00000E+000	2.80000E-001	1.00832E-003	4	..........a	-327.66
	292	58.6	2.50038E-001	-1.46350E-010	0.00000E+000	2.50000E-001	1.01202E-003	4	..........a	-327.66
	295	59.2	2.20006E-001	-1.46743E-010	0.00000E+000	2.20000E-001	9.90822E-004	4	..........a	-327.66
	298	59.8	1.90022E-001	-1.44915E-010	0.00000E+000	1.90000E-001	9.97922E-004	4	..........a	-327.66
	301	60.4	1.59958E-001	-1.43313E-010	0.00000E+000	1.60000E-001	9.98222E-004	4	..........a	-327.66
	304	61	1.30059E-001	-1.41384E-010	0.00000E+000	1.30000E-001	9.84622E-004	4	..........a	-327.66
	307	61.6	9.99927E-002	-1.41750E-010	0.00000E+000	1.00000E-001	1.01862E-003	4	..........a	-327.66
	310	62.2	6.99706E-002	-1.42890E-010	0.00000E+000	7.00000E-002	1.01552E-003	4	..........a	-327.66
	313	62.8	4.00094E-002	-1.46907E-010	0.00000E+000	4.00000E-002	9.94422E-004	4	..........a	-327.66
	316	63.4	1.00698E-002	-1.51274E-010	0.00000E+000	1.00000E-002	9.81022E-004	4	..........a	-327.66
	319	64	-1.99446E-002	-1.59506E-010	0.00000E+000	-2.00000E-002	1.01292E-003	4	..........a	-327.66
	322	64.6	-4.99912E-002	-1.69600E-010	0.00000E+000	-5.00000E-002	9.98022E-004	4	..........a	-327.66
	325	65.2	-8.00034E-002	-1.82241E-010	0.00000E+000	-8.00000E-002	1.00362E-003	4	..........a	-327.66
	328	65.8	-1.09971E-001	-1.97426E-010	0.00000E+000	-1.10000E-001	9.96122E-004	4	..........a	-327.66
	331	66.4	-1.39915E-001	-2.15141E-010	0.00000E+000	-1.40000E-001	1.01402E-003	4	..........a	-327.66
	334	67	-1.69960E-001	-2.36382E-010	0.00000E+000	-1.70000E-001	9.86322E-004	4	..........a	-327.66
	337	67.6	-2.00067E-001	-2.62413E-010	0.00000E+000	-2.00000E-001	9.95222E-004	4	..........a	-327.66
	340	68.2	-2.29895E-001	-2.94376E-010	0.00000E+000	-2.30000E-001	1.00122E-003	4	..........a	-327.66
	343	68.8	-2.59846E-001	-3.30630E-010	0.00000E+000	-2.60000E-001	1.00942E-003	4	..........a	-327.66
	346	69.4	-2.89916E-001	-3.82490E-010	0.00000E+000	-2.90000E-001	9.91422E-004	4	..........a	-327.66
	349	70	-3.19896E-001	-4.43136E-010	0.00000E+000	-3.20000E-001	1.00092E-003	4	..........a	-327.66
	352	70.6	-3.49891E-001	-5.14695E-010	0.00000E+000	-3.50000E-001	9.86722E-004	4	..........a	-327.66
	355	71.2	-3.79893E-001	-5.99175E-010	0.00000E+000	-3.80000E-001	9.96522E-004	4	..........a	-327.66
	358	71.8	-4.09947E-001	-6.99160E-010	0.00000E+000	-4.10000E-001	1.02012E-003	4	..........a	-327.66
	361	72.4	-4.39853E-001	-8.15573E-010	0.00000E+000	-4.40000E-001	1.00362E-003	4	..........a	-327.66
[...]
	951	190.4	-4.59855E-001	-5.13928E-010	0.00000E+000	-4.60000E-001	9.99522E-004	4	..........a	-327.66
	954	191	-4.29860E-001	-3.65085E-010	0.00000E+000	-4.30000E-001	9.82322E-004	4	..........a	-327.66
	957	191.6	-3.99888E-001	-2.42239E-010	0.00000E+000	-4.00000E-001	1.00042E-003	4	..........a	-327.66
	960	192.2	-3.69947E-001	-1.41495E-010	0.00000E+000	-3.70000E-001	9.94022E-004	4	..........a	-327.66
	963	192.8	-3.39940E-001	-5.99175E-011	0.00000E+000	-3.40000E-001	1.00512E-003	4	..........a	-327.66
	966	193.4	-3.09904E-001	5.42901E-012	0.00000E+000	-3.10000E-001	1.01072E-003	4	..........a	-327.66
	969	194	-2.79926E-001	5.80960E-011	0.00000E+000	-2.80000E-001	9.84722E-004	4	..........a	-327.66
	972	194.6	-2.49957E-001	9.93856E-011	0.00000E+000	-2.50000E-001	9.99022E-004	4	..........a	-327.66
	975	195.2	-2.19895E-001	1.27679E-010	0.00000E+000	-2.20000E-001	1.00792E-003	4	..........a	-327.66
	978	195.8	-1.90108E-001	1.46722E-010	0.00000E+000	-1.90000E-001	9.98722E-004	4	..........a	-327.66
	981	196.4	-1.59971E-001	1.54942E-010	0.00000E+000	-1.60000E-001	1.01302E-003	4	..........a	-327.66
	984	197	-1.30037E-001	1.61474E-010	0.00000E+000	-1.30000E-001	1.00182E-003	4	..........a	-327.66
	987	197.6	-9.99622E-002	1.59553E-010	0.00000E+000	-1.00000E-001	1.01332E-003	4	..........a	-327.66
	990	198.2	-6.99366E-002	1.58887E-010	0.00000E+000	-7.00000E-002	9.74722E-004	4	..........a	-327.66
	993	198.8	-3.99178E-002	1.60642E-010	0.00000E+000	-4.00000E-002	1.01392E-003	4	..........a	-327.66
	996	199.4	-9.98761E-003	1.57882E-010	0.00000E+000	-1.00000E-002	9.90422E-004	4	..........a	-327.66
	999	200	2.01083E-002	1.60578E-010	0.00000E+000	2.00000E-002	9.91022E-004	4	..........a	-327.66
	1002	200.6	5.00859E-002	1.60912E-010	0.00000E+000	5.00000E-002	9.90822E-004	4	..........a	-327.66
	1005	201.2	8.00117E-002	1.61671E-010	0.00000E+000	8.00000E-002	9.88822E-004	4	..........a	-327.66
	1008	201.8	1.10079E-001	1.68085E-010	0.00000E+000	1.10000E-001	9.91822E-004	4	..........a	-327.66
	1011	202.4	1.40110E-001	1.75707E-010	0.00000E+000	1.40000E-001	1.00312E-003	4	..........a	-327.66
	1014	203	1.70094E-001	1.85217E-010	0.00000E+000	1.70000E-001	9.83922E-004	4	..........a	-327.66
	1017	203.6	2.00040E-001	1.96677E-010	0.00000E+000	2.00000E-001	1.01502E-003	4	..........a	-327.66
	1020	204.2	2.29981E-001	2.07993E-010	0.00000E+000	2.30000E-001	1.02152E-003	4	..........a	-327.66
	1023	204.8	2.60040E-001	2.17059E-010	0.00000E+000	2.60000E-001	1.02682E-003	4	..........a	-327.66
	1026	205.4	2.90034E-001	2.22889E-010	0.00000E+000	2.90000E-001	1.00202E-003	4	..........a	-327.66
	1029	206	3.19994E-001	2.26328E-010	0.00000E+000	3.20000E-001	1.00212E-003	4	..........a	-327.66
	1032	206.6	3.49971E-001	2.29051E-010	0.00000E+000	3.50000E-001	9.98322E-004	4	..........a	-327.66
	1035	207.2	3.80006E-001	2.28551E-010	0.00000E+000	3.80000E-001	1.00812E-003	4	..........a	-327.66
	1038	207.8	4.09997E-001	2.27872E-010	0.00000E+000	4.10000E-001	9.94522E-004	4	..........a	-327.66
	1041	208.4	4.39954E-001	2.26336E-010	0.00000E+000	4.40000E-001	1.01032E-003	4	..........a	-327.66
	1044	209	4.69981E-001	2.25675E-010	0.00000E+000	4.70000E-001	1.00952E-003	4	..........a	-327.66
	1047	209.6	5.00007E-001	2.25458E-010	0.00000E+000	5.00000E-001	1.01602E-003	4	..........a	-327.66
	1050	210.2	5.30050E-001	2.27862E-010	0.00000E+000	5.30000E-001	1.00632E-003	4	..........a	-327.66
	1053	210.8	5.59930E-001	2.33089E-010	0.00000E+000	5.60000E-001	1.00562E-003	4	..........a	-327.66
	1056	211.4	5.89952E-001	2.41122E-010	0.00000E+000	5.90000E-001	1.00602E-003	4	..........a	-327.66
	1059	212	6.19966E-001	2.52158E-010	0.00000E+000	6.20000E-001	1.01932E-003	4	..........a	-327.66
	1062	212.6	6.49936E-001	2.66915E-010	0.00000E+000	6.50000E-001	1.00552E-003	4	..........a	-327.66
	1065	213.2	6.79987E-001	2.88133E-010	0.00000E+000	6.80000E-001	1.02072E-003	4	..........a	-327.66
	1068	213.8	7.09894E-001	3.14992E-010	0.00000E+000	7.10000E-001	1.00422E-003	4	..........a	-327.66
	1071	214.4	7.40012E-001	3.52424E-010	0.00000E+000	7.40000E-001	1.02082E-003	4	..........a	-327.66
	1074	215	7.69912E-001	4.03682E-010	0.00000E+000	7.70000E-001	1.01142E-003	4	..........a	-327.66
	1077	215.6	7.99948E-001	4.76162E-010	0.00000E+000	8.00000E-001	1.02312E-003	4	..........a	-327.66
CURVE5	TABLE
	Pt	T	Vf	Im	Vu	Sig	Ach	IERange	Over	Temp
	#	s	V vs. Ref.	A	V	V	V	#	bits	deg C
	1078	215.8	7.89847E-001	3.20446E-010	0.00000E+000	7.90000E-001	9.94322E-004	4	..........a	-327.66
	1079	216	7.79992E-001	2.30111E-010	0.00000E+000	7.80000E-001	1.00322E-003	4	..........a	-327.66
	1080	216.2	7.69968E-001	1.67098E-010	0.00000E+000	7.70000E-001	1.00772E-003	4	..........a	-327.66
	1081	216.4	7.59892E-001	1.23586E-010	0.00000E+000	7.60000E-001	1.01462E-003	4	..........a	-327.66
	1082	216.6	7.49952E-001	8.69071E-011	0.00000E+000	7.50000E-001	1.00012E-003	4	..........a	-327.66
	1083	216.8	7.40015E-001	5.84610E-011	0.00000E+000	7.40000E-001	9.97722E-004	4	..........a	-327.66
	1084	217	7.29938E-001	3.70782E-011	0.00000E+000	7.30000E-001	9.98022E-004	4	..........a	-327.66
	1085	217.2	7.19958E-001	1.96156E-011	0.00000E+000	7.20000E-001	1.00852E-003	4	..........a	-327.66
	1086	217.4	7.09888E-001	4.87999E-012	0.00000E+000	7.10000E-001	1.01162E-003	4	..........a	-327.66
	1087	217.6	6.99970E-001	-6.85446E-012	0.00000E+000	7.00000E-001	9.98622E-004	4	..........a	-327.66
	1088	217.8	6.89910E-001	-1.77559E-011	0.00000E+000	6.90000E-001	1.00262E-003	4	..........a	-327.66
	1089	218	6.79910E-001	-2.70452E-011	0.00000E+000	6.80000E-001	1.02022E-003	4	..........a	-327.66
	1090	218.2	6.69914E-001	-3.56516E-011	0.00000E+000	6.70000E-001	9.83722E-004	4	..........a	-327.66
	1091	218.4	6.60018E-001	-3.99367E-011	0.00000E+000	6.60000E-001	1.01352E-003	4	..........a	-327.66
	1092	218.6	6.49926E-001	-4.52489E-011	0.00000E+000	6.50000E-001	1.01322E-003	4	..........a	-327.66
	1093	218.8	6.39937E-001	-5.16142E-011	0.00000E+000	6.40000E-001	1.01522E-003	4	..........a	-327.66
	1094	219	6.29943E-001	-5.58793E-011	0.00000E+000	6.30000E-001	1.00672E-003	4	..........a	-327.66
	1095	219.2	6.20008E-001	-5.95955E-011	0.00000E+000	6.20000E-001	1.02092E-003	4	..........a	-327.66
	1096	219.4	6.09957E-001	-6.45177E-011	0.00000E+000	6.10000E-001	1.01562E-003	4	..........a	-327.66
	1097	219.6	5.99950E-001	-6.81648E-011	0.00000E+000	6.00000E-001	1.00712E-003	4	..........a	-327.66
	1098	219.8	5.89984E-001	-7.10359E-011	0.00000E+000	5.90000E-001	1.01082E-003	4	..........a	-327.66
	1099	220	5.80039E-001	-7.39230E-011	0.00000E+000	5.80000E-001	1.02202E-003	4	..........a	-327.66
	1100	220.2	5.69959E-001	-7.74582E-011	0.00000E+000	5.70000E-001	1.00202E-003	4	..........a	-327.66
	1101	220.4	5.59954E-001	-8.04613E-011	0.00000E+000	5.60000E-001	1.02472E-003	4	..........a	-327.66
	1102	220.6	5.49969E-001	-8.27244E-011	0.00000E+000	5.50000E-001	9.87822E-004	4	..........a	-327.66
	1103	220.8	5.40013E-001	-8.57835E-011	0.00000E+000	5.40000E-001	9.99522E-004	4	..........a	-327.66
	1104	221	5.30043E-001	-8.91966E-011	0.00000E+000	5.30000E-001	9.81422E-004	4	..........a	-327.66
	1105	221.2	5.19966E-001	-9.14747E-011	0.00000E+000	5.20000E-001	1.01432E-003	4	..........a	-327.66
	1106	221.4	5.09941E-001	-9.41808E-011	0.00000E+000	5.10000E-001	9.97022E-004	4	..........a	-327.66
	1107	221.6	5.00071E-001	-9.62339E-011	0.00000E+000	5.00000E-001	1.00852E-003	4	..........a	-327.66
	1108	221.8	4.89974E-001	-9.99280E-011	0.00000E+000	4.90000E-001	9.88722E-004	4	..........a	-327.66
	1109	222	4.79982E-001	-1.02469E-010	0.00000E+000	4.80000E-001	1.00322E-003	4	..........a	-327.66
	1110	222.2	4.69970E-001	-1.05592E-010	0.00000E+000	4.70000E-001	9.82622E-004	4	..........a	-327.66
	1111	222.4	4.60021E-001	-1.08250E-010	0.00000E+000	4.60000E-001	9.99522E-004	4	..........a	-327.66
	1112	222.6	4.49963E-001	-1.11218E-010	0.00000E+000	4.50000E-001	1.00892E-003	4	..........a	-327.66
	1113	222.8	4.39984E-001	-1.13872E-010	0.00000E+000	4.40000E-001	1.00912E-003	4	..........a	-327.66
	1114	223	4.29958E-001	-1.16400E-010	0.00000E+000	4.30000E-001	1.01302E-003	4	..........a	-327.66
	1115	223.2	4.20033E-001	-1.19132E-010	0.00000E+000	4.20000E-001	1.00882E-003	4	..........a	-327.66
	1116	223.4	4.09983E-001	-1.21940E-010	0.00000E+000	4.10000E-001	9.83522E-004	4	..........a	-327.66
	1117	223.6	4.00015E-001	-1.24888E-010	0.00000E+000	4.00000E-001	1.01342E-003	4	..........a	-327.66
	1118	223.8	3.89980E-001	-1.26828E-010	0.00000E+000	3.90000E-001	9.94622E-004	4	..........a	-327.66
	1119	224	3.80007E-001	-1.30526E-010	0.00000E+000	3.80000E-001	1.01142E-003	4	..........a	-327.66
	1120	224.2	3.70002E-001	-1.32234E-010	0.00000E+000	3.70000E-001	9.98922E-004	4	..........a	-327.66