File: data/raw/batch_data/20240522_C_GM0016_HL03_E01_CV50.DTA
EXPLAIN
TAG	CV
TITLE	LABEL	Cyclic Voltammetry	Test &Identifier
DATE	LABEL	5/22/2024	Date
TIME	LABEL	16:39:14	Time
NOTES	NOTES	1	&Notes...

PSTAT	PSTAT	REF600P-43058	Potentiostat
VINIT	POTEN	0.00000E+000	T	Initial &E (V)
VLIMIT1	POTEN	8.00000E-001	F	Scan Limit &1 (V)
VLIMIT2	POTEN	-6.00000E-001	F	Scan Limit &2 (V)
VFINAL	POTEN	0.00000E+000	T	Final &E (V)
SCANRATE	QUANT	4.99999E+001	&Scan Rate (mV/s)
STEPSIZE	QUANT	1.00000E+001	St&ep Size (mV)
CYCLES	IQUANT	4	C&ycles (#)
IMODE	SELECTOR	0	I/E Range &Mode
IRANGE	QUANT	1.00000E-005	&Max Current (mA)
AREA	QUANT	1.00000E+000	Electrode &Area (cm^2)
ELECTRODETYPE	SELECTOR	0	Electrode Type
STRIPPING	TOGGLE	F	Used for Stripping
POLARITY	TOGGLE	F	Signal Polarity
CONDIT	TWOPARAM	F	1.50000E+001	0.00000E+000	Conditionin&g	Time(s)	E(V)
DELAY	TWOPARAM	T	1.00000E+001	0.00000E+000	Init. De&lay	Time(s)	Stab.(mV/s)
EQDELAY	QUANT	5.00000E+000	Equil. &Time (s)
IRCOMP	SELECTOR	0	IRCom&p
PFCOR	QUANT	5.00000E+001	PF Corr. (ohm)
SAMPLINGMODE	SELECTOR	1	Sampling &Mode
OCVCURVE	TABLE	39
	Pt	T	Vf	Vm	Ach	Over	Temp
	#	s	V vs. Ref.	V	V	bits	deg C
	0	0.258333	3.42736E-002	3.42736E-002	2.55659E-004	..........a	-327.66
	1	0.516667	3.42152E-002	3.12190E-002	2.50726E-004	..........a	-327.66
	2	0.775	3.38562E-002	2.82881E-002	2.44526E-004	..........a	-327.66
	3	1.03333	3.28384E-002	2.54787E-002	2.54459E-004	..........a	-327.66
	4	1.29167	3.10133E-002	2.27783E-002	2.45192E-004	..........a	-327.66
	5	1.55	2.85793E-002	2.01852E-002	2.52192E-004	..........a	-327.66
	6	1.80833	2.58711E-002	1.77008E-002	2.67459E-004	..........a	-327.66
	7	2.06667	2.31382E-002	1.53152E-002	2.36326E-004	..........a	-327.66
	8	2.325	2.04968E-002	1.30218E-002	2.37792E-004	..........a	-327.66
	9	2.58333	1.79761E-002	1.08240E-002	2.32326E-004	..........a	-327.66
	10	2.84167	1.55703E-002	8.71060E-003	2.45992E-004	..........a	-327.66
	11	3.1	1.32673E-002	6.68308E-003	2.39792E-004	..........a	-327.66
	12	3.35833	1.10582E-002	4.73371E-003	2.45592E-004	..........a	-327.66
	13	3.61667	8.93704E-003	2.86217E-003	2.56526E-004	..........a	-327.66
	14	3.875	6.89958E-003	1.06182E-003	2.44592E-004	..........a	-327.66
	15	4.13333	4.94216E-003	-6.68436E-004	2.38859E-004	..........a	-327.66
	16	4.39167	3.06125E-003	-2.33230E-003	2.57459E-004	..........a	-327.66
	17	4.65	1.25343E-003	-3.93154E-003	2.37726E-004	..........a	-327.66
	18	4.90833	-4.84401E-004	-5.46833E-003	2.45259E-004	..........a	-327.66
	19	5.16667	-2.15507E-003	-6.94912E-003	2.57926E-004	..........a	-327.66
	20	5.425	-3.76140E-003	-8.37352E-003	2.51926E-004	..........a	-327.66
	21	5.68333	-5.30629E-003	-9.74308E-003	2.40392E-004	..........a	-327.66
	22	5.94167	-6.79254E-003	-1.10634E-002	2.46992E-004	..........a	-327.66
	23	6.2	-8.22276E-003	-1.23378E-002	2.41792E-004	..........a	-327.66
	24	6.45833	-9.59959E-003	-1.35592E-002	2.40592E-004	..........a	-327.66
	25	6.71667	-1.09254E-002	-1.47399E-002	2.35459E-004	..........a	-327.66
	26	6.975	-1.22021E-002	-1.58760E-002	2.46592E-004	..........a	-327.66
	27	7.23333	-1.34317E-002	-1.69742E-002	2.51459E-004	..........a	-327.66
	28	7.49167	-1.46164E-002	-1.80337E-002	2.45926E-004	..........a	-327.66
	29	7.75	-1.57588E-002	-1.90634E-002	2.46792E-004	..........a	-327.66
	30	8.00833	-1.68612E-002	-2.00396E-002	2.66792E-004	..........a	-327.66
	31	8.26667	-1.79250E-002	-2.09880E-002	2.51726E-004	..........a	-327.66
	32	8.525	-1.89505E-002	-2.19045E-002	2.50792E-004	..........a	-327.66
	33	8.78333	-1.99385E-002	-2.27882E-002	2.58459E-004	..........a	-327.66
	34	9.04167	-2.08909E-002	-2.36418E-002	2.45392E-004	..........a	-327.66
	35	9.3	-2.18099E-002	-2.44691E-002	2.49659E-004	..........a	-327.66
	36	9.5583	-2.26974E-002	-2.52661E-002	2.45926E-004	..........a	-327.66
	37	9.8167	-2.35549E-002	-2.60374E-002	2.56326E-004	..........a	-327.66
	38	10.075	-2.43835E-002	-2.67821E-002	2.48859E-004	..........a	-327.66
EOC	QUANT	-0.0243835	Open Circuit (V)
PSTATMODEL	IQUANT	7	Pstat Model
PSTATSECTION	LABEL	REF600P-43058	Pstat Section
PSTATSERIALNO	LABEL	43058	Pstat Serial Number
CTRLMODE	IQUANT	1	Control Mode
ELECTROMETER	IQUANT	0	RE=0 or CS=1
IESTAB	IQUANT	2	I/E Stability
CASPEED	IQUANT	4	Control Amp Speed
CONVENTION	IQUANT	1	Current Convention
ICHRANGE	IQUANT	2	Ich Range
ICHRANGEMODE	TOGGLE	F	Ich Auto Range
ICHOFFSETENABLE	TOGGLE	F	Ich Offset Enable
ICHOFFSET	QUANT	0	Ich Offset (V)
ICHFILTER	IQUANT	2	Ich Filter
VCHRANGE	IQUANT	2	Vch Range
VCHRANGEMODE	TOGGLE	F	Vch Auto Range
VCHOFFSETENABLE	TOGGLE	F	Vch Offset Enable
VCHOFFSET	QUANT	0	Vch Offset (V)
VCHFILTER	IQUANT	2	Vch Filter
ACHRANGE	IQUANT	2	Ach Range
ACHOFFSETENABLE	TOGGLE	F	Ach Offset Enable
ACHOFFSET	QUANT	0	Ach Offset (V)
ACHFILTER	IQUANT	1	Ach Filter
IERANGELOWERLIMIT	IQUANT	1	I/E Range Lower Limit
IERANGEMODE	TOGGLE	T	I/E AutoRange
IERANGE	IQUANT	4	I/E Range
POSFEEDENABLE	TOGGLE	F	Positive Feedback IR Comp
POSFEEDRESISTANCE	QUANT	0	Positive Feedback Resistance (ohm)
ACHSELECT	IQUANT	4	Ach Select
SENSECABLEID	IQUANT	7	Sense Cable ID
PWRCABLEID	IQUANT	7	Power Cable ID
DCCALDATE	LABEL	3/22/2024	DC Calibration Date
ACCALDATE	LABEL	3/22/2024	AC Calibration Date
THERMOSELECT	IQUANT	1	Thermo Select
FRAMEWORKVERSION	LABEL	7.8.4	Framework Version
INSTRUMENTVERSION	LABEL	4.42	Instrument Version
CURVE1	TABLE
	Pt	T	Vf	Im	Vu	Sig	Ach	IERange	Over	Temp
	#	s	V vs. Ref.	A	V	V	V	#	bits	deg C
	0	0.2	-2.43789E-002	3.29722E-009	0.00000E+000	-2.44000E-002	1.00439E-003	5	..........a	-327.66
	3	0.8	5.67849E-003	2.28928E-008	0.00000E+000	5.60001E-003	1.00239E-003	5	..........a	-327.66
	6	1.4	3.56665E-002	3.09076E-008	0.00000E+000	3.56000E-002	1.00529E-003	5	..........a	-327.66
	9	2	6.56145E-002	3.73852E-008	0.00000E+000	6.56000E-002	1.02209E-003	5	..........a	-327.66
	12	2.6	9.55607E-002	4.37184E-008	0.00000E+000	9.56000E-002	1.02199E-003	5	..........a	-327.66
	15	3.2	1.25698E-001	5.02251E-008	0.00000E+000	1.25600E-001	1.01169E-003	5	..........a	-327.66
	18	3.8	1.55618E-001	5.70280E-008	0.00000E+000	1.55600E-001	1.01779E-003	5	..........a	-327.66
	21	4.4	1.85593E-001	6.41636E-008	0.00000E+000	1.85600E-001	1.02069E-003	5	..........a	-327.66
	24	5	2.15643E-001	7.15728E-008	0.00000E+000	2.15600E-001	1.00529E-003	5	..........a	-327.66
	27	5.6	2.45610E-001	7.92530E-008	0.00000E+000	2.45600E-001	1.01059E-003	5	..........a	-327.66
	30	6.2	2.75528E-001	8.71721E-008	0.00000E+000	2.75600E-001	1.02559E-003	5	..........a	-327.66
	33	6.8	3.05529E-001	9.53696E-008	0.00000E+000	3.05600E-001	1.02239E-003	5	..........a	-327.66
	36	7.4	3.35579E-001	1.03768E-007	0.00000E+000	3.35600E-001	1.01989E-003	5	..........a	-327.66
	39	8	3.65591E-001	1.12453E-007	0.00000E+000	3.65600E-001	9.97092E-004	5	..........a	-327.66
	42	8.6	3.95576E-001	1.21496E-007	0.00000E+000	3.95600E-001	9.98192E-004	5	..........a	-327.66
	45	9.2	4.25497E-001	1.31452E-007	0.00000E+000	4.25600E-001	1.03639E-003	5	..........a	-327.66
	48	9.8	4.55570E-001	1.40448E-007	0.00000E+000	4.55600E-001	1.01359E-003	5	..........a	-327.66
	51	10.4	4.85523E-001	1.49902E-007	0.00000E+000	4.85600E-001	9.90592E-004	5	..........a	-327.66
	54	11	5.15532E-001	1.60216E-007	0.00000E+000	5.15600E-001	1.01779E-003	5	..........a	-327.66
	57	11.6	5.45510E-001	1.71959E-007	0.00000E+000	5.45600E-001	1.00189E-003	5	..........a	-327.66
	60	12.2	5.75554E-001	1.84734E-007	0.00000E+000	5.75600E-001	1.03049E-003	5	..........a	-327.66
	63	12.8	6.05514E-001	1.97222E-007	0.00000E+000	6.05600E-001	1.00069E-003	5	..........a	-327.66
	66	13.4	6.35441E-001	2.09178E-007	0.00000E+000	6.35600E-001	1.02359E-003	5	..........a	-327.66
	69	14	6.65443E-001	2.20555E-007	0.00000E+000	6.65600E-001	1.02159E-003	5	..........a	-327.66
	72	14.6	6.95520E-001	2.31273E-007	0.00000E+000	6.95600E-001	1.00569E-003	5	..........a	-327.66
	75	15.2	7.25436E-001	2.41488E-007	0.00000E+000	7.25600E-001	1.00259E-003	5	..........a	-327.66
	78	15.8	7.55498E-001	2.51169E-007	0.00000E+000	7.55600E-001	9.97792E-004	5	..........a	-327.66
	81	16.4	7.85413E-001	2.60959E-007	0.00000E+000	7.85600E-001	9.96392E-004	5	..........a	-327.66
	84	17	7.75527E-001	2.08980E-007	0.00000E+000	7.75600E-001	1.00929E-003	5	..........a	-327.66
	87	17.6	7.45474E-001	1.63162E-007	0.00000E+000	7.45600E-001	1.00439E-003	5	..........a	-327.66
	90	18.2	7.15477E-001	1.33909E-007	0.00000E+000	7.15600E-001	1.02019E-003	5	..........a	-327.66
	93	18.8	6.85512E-001	1.12730E-007	0.00000E+000	6.85600E-001	9.91692E-004	5	..........a	-327.66
	96	19.4	6.55590E-001	9.66715E-008	0.00000E+000	6.55600E-001	1.01949E-003	5	..........a	-327.66
	99	20	6.25507E-001	8.38341E-008	0.00000E+000	6.25600E-001	1.00049E-003	5	..........a	-327.66
	102	20.6	5.95549E-001	7.28919E-008	0.00000E+000	5.95600E-001	1.01039E-003	5	..........a	-327.66
	105	21.2	5.65569E-001	6.35827E-008	0.00000E+000	5.65600E-001	1.01389E-003	5	..........a	-327.66
	108	21.8	5.35562E-001	5.50135E-008	0.00000E+000	5.35600E-001	1.01339E-003	5	..........a	-327.66
	111	22.4	5.05530E-001	4.71711E-008	0.00000E+000	5.05600E-001	1.01559E-003	5	..........a	-327.66
	114	23	4.75586E-001	3.95302E-008	0.00000E+000	4.75600E-001	9.88992E-004	5	..........a	-327.66
	117	23.6	4.45604E-001	3.21952E-008	0.00000E+000	4.45600E-001	1.01709E-003	5	..........a	-327.66
	120	24.2	4.15615E-001	2.48675E-008	0.00000E+000	4.15600E-001	1.00899E-003	5	..........a	-327.66
	123	24.8	3.85576E-001	1.76770E-008	0.00000E+000	3.85600E-001	1.01809E-003	5	..........a	-327.66
	126	25.4	3.55609E-001	1.05803E-008	0.00000E+000	3.55600E-001	1.02529E-003	5	..........a	-327.66
	129	26	3.25719E-001	3.64283E-009	0.00000E+000	3.25600E-001	1.00029E-003	5	..........a	-327.66
	132	26.6	2.95687E-001	-3.09896E-009	0.00000E+000	2.95600E-001	1.00219E-003	5	..........a	-327.66
	135	27.2	2.65653E-001	-9.47983E-009	0.00000E+000	2.65600E-001	1.00809E-003	5	..........a	-327.66
	138	27.8	2.35628E-001	-1.55393E-008	0.00000E+000	2.35600E-001	1.02959E-003	5	..........a	-327.66
	141	28.4	2.05673E-001	-2.12441E-008	0.00000E+000	2.05600E-001	9.91992E-004	5	..........a	-327.66
	144	29	1.75662E-001	-2.65334E-008	0.00000E+000	1.75600E-001	9.96392E-004	5	..........a	-327.66
	147	29.6	1.45658E-001	-3.14730E-008	0.00000E+000	1.45600E-001	1.02899E-003	5	..........a	-327.66
	150	30.2	1.15669E-001	-3.60719E-008	0.00000E+000	1.15600E-001	9.96392E-004	5	..........a	-327.66
	153	30.8	8.57297E-002	-4.03094E-008	0.00000E+000	8.56000E-002	9.91892E-004	5	..........a	-327.66
	156	31.4	5.56746E-002	-4.41148E-008	0.00000E+000	5.56000E-002	1.01299E-003	5	..........a	-327.66
	159	32	2.56222E-002	-4.75403E-008	0.00000E+000	2.56000E-002	1.00529E-003	5	..........a	-327.66
	162	32.6	-4.30746E-003	-5.08227E-008	0.00000E+000	-4.39999E-003	9.99492E-004	5	..........a	-327.66
	165	33.2	-3.42609E-002	-5.39221E-008	0.00000E+000	-3.44000E-002	9.74792E-004	5	..........a	-327.66
	168	33.8	-6.42785E-002	-5.72394E-008	0.00000E+000	-6.44000E-002	9.83492E-004	5	..........a	-327.66
	171	34.4	-9.42810E-002	-6.09894E-008	0.00000E+000	-9.44000E-002	9.97992E-004	5	..........a	-327.66
	174	35	-1.24317E-001	-6.54090E-008	0.00000E+000	-1.24400E-001	9.91092E-004	5	..........a	-327.66
	177	35.6	-1.54246E-001	-7.04938E-008	0.00000E+000	-1.54400E-001	9.95992E-004	5	..........a	-327.66
	180	36.2	-1.84313E-001	-7.63852E-008	0.00000E+000	-1.84400E-001	1.01189E-003	5	..........a	-327.66
	183	36.8	-2.14287E-001	-8.33225E-008	0.00000E+000	-2.14400E-001	9.96492E-004	5	..........a	-327.66
	186	37.4	-2.44252E-001	-9.19436E-008	0.00000E+000	-2.44400E-001	9.92592E-004	5	..........a	-327.66
	189	38	-2.74209E-001	-1.00683E-007	0.00000E+000	-2.74400E-001	1.00009E-003	5	..........a	-327.66
	192	38.6	-3.04276E-001	-1.09843E-007	0.00000E+000	-3.04400E-001	1.00989E-003	5	..........a	-327.66
	195	39.2	-3.34299E-001	-1.19791E-007	0.00000E+000	-3.34400E-001	1.00399E-003	5	..........a	-327.66
	198	39.8	-3.64271E-001	-1.30439E-007	0.00000E+000	-3.64400E-001	9.89792E-004	5	..........a	-327.66
	201	40.4	-3.94133E-001	-1.41194E-007	0.00000E+000	-3.94400E-001	1.01569E-003	5	..........a	-327.66
	204	41	-4.24209E-001	-1.52547E-007	0.00000E+000	-4.24400E-001	9.76992E-004	5	..........a	-327.66
	207	41.6	-4.54220E-001	-1.63973E-007	0.00000E+000	-4.54400E-001	9.87992E-004	5	..........a	-327.66
	210	42.2	-4.84209E-001	-1.75395E-007	0.00000E+000	-4.84400E-001	1.00319E-003	5	..........a	-327.66
	213	42.8	-5.14111E-001	-1.86743E-007	0.00000E+000	-5.14400E-001	9.99792E-004	5	..........a	-327.66
	216	43.4	-5.44220E-001	-1.97589E-007	0.00000E+000	-5.44400E-001	1.00809E-003	5	..........a	-327.66
	219	44	-5.74102E-001	-2.07782E-007	0.00000E+000	-5.74400E-001	1.00759E-003	5	..........a	-327.66
	222	44.6	-6.04189E-001	-2.17012E-007	0.00000E+000	-6.04400E-001	1.00649E-003	5	..........a	-327.66
CURVE2	TABLE
	Pt	T	Vf	Im	Vu	Sig	Ach	IERange	Over	Temp
	#	s	V vs. Ref.	A	V	V	V	#	bits	deg C
	223	44.8	-5.89816E-001	-1.79879E-007	0.00000E+000	-5.90000E-001	1.00539E-003	5	..........a	-327.66
	226	45.4	-5.59868E-001	-1.35078E-007	0.00000E+000	-5.60000E-001	1.00859E-003	5	..........a	-327.66
	229	46	-5.29828E-001	-1.06482E-007	0.00000E+000	-5.30000E-001	1.01869E-003	5	..........a	-327.66
	232	46.6	-4.99820E-001	-8.54942E-008	0.00000E+000	-5.00000E-001	9.97592E-004	5	..........a	-327.66
	235	47.2	-4.69855E-001	-6.89190E-008	0.00000E+000	-4.70000E-001	1.00329E-003	5	..........a	-327.66
	238	47.8	-4.39846E-001	-5.53400E-008	0.00000E+000	-4.40000E-001	9.96392E-004	5	..........a	-327.66
	241	48.4	-4.09876E-001	-4.39039E-008	0.00000E+000	-4.10000E-001	1.00079E-003	5	..........a	-327.66
	244	49	-3.79850E-001	-3.39775E-008	0.00000E+000	-3.80000E-001	1.00089E-003	5	..........a	-327.66
	247	49.6	-3.49875E-001	-2.51910E-008	0.00000E+000	-3.50000E-001	1.01139E-003	5	..........a	-327.66
	250	50.2	-3.19881E-001	-1.73151E-008	0.00000E+000	-3.20000E-001	9.96292E-004	5	..........a	-327.66
	253	50.8	-2.89890E-001	-1.00816E-008	0.00000E+000	-2.90000E-001	1.00859E-003	5	..........a	-327.66
	256	51.4	-2.59843E-001	-3.34404E-009	0.00000E+000	-2.60000E-001	9.82892E-004	5	..........a	-327.66
	259	52	-2.29990E-001	3.07494E-009	0.00000E+000	-2.30000E-001	9.95892E-004	5	..........a	-327.66
	262	52.6	-1.99981E-001	9.66361E-009	0.00000E+000	-2.00000E-001	1.02519E-003	5	..........a	-327.66
	265	53.2	-1.69910E-001	1.56834E-008	0.00000E+000	-1.70000E-001	1.00479E-003	5	..........a	-327.66
	268	53.8	-1.39902E-001	2.13413E-008	0.00000E+000	-1.40000E-001	1.01019E-003	5	..........a	-327.66
	271	54.4	-1.09996E-001	2.64967E-008	0.00000E+000	-1.10000E-001	1.01109E-003	5	..........a	-327.66
	274	55	-7.99889E-002	3.15212E-008	0.00000E+000	-8.00000E-002	9.91892E-004	5	..........a	-327.66
	277	55.6	-4.99250E-002	3.71857E-008	0.00000E+000	-5.00000E-002	9.90292E-004	5	..........a	-327.66
	280	56.2	-1.99643E-002	4.34975E-008	0.00000E+000	-2.00000E-002	1.00479E-003	5	..........a	-327.66
	283	56.8	1.00642E-002	5.04338E-008	0.00000E+000	1.00000E-002	9.99592E-004	5	..........a	-327.66
	286	57.4	3.99871E-002	5.78662E-008	0.00000E+000	4.00000E-002	1.01459E-003	5	..........a	-327.66
	289	58	6.99804E-002	6.58576E-008	0.00000E+000	7.00000E-002	1.00869E-003	5	..........a	-327.66
	292	58.6	1.00055E-001	7.42090E-008	0.00000E+000	1.00000E-001	9.98292E-004	5	..........a	-327.66
	295	59.2	1.29989E-001	8.27934E-008	0.00000E+000	1.30000E-001	9.98492E-004	5	..........a	-327.66
	298	59.8	1.59974E-001	9.08047E-008	0.00000E+000	1.60000E-001	1.00429E-003	5	..........a	-327.66
	301	60.4	1.90058E-001	9.82739E-008	0.00000E+000	1.90000E-001	9.92892E-004	5	..........a	-327.66
	304	61	2.19893E-001	1.04783E-007	0.00000E+000	2.20000E-001	9.73392E-004	5	..........a	-327.66
	307	61.6	2.49940E-001	1.10325E-007	0.00000E+000	2.50000E-001	1.00779E-003	5	..........a	-327.66
	310	62.2	2.79927E-001	1.17059E-007	0.00000E+000	2.80000E-001	1.00839E-003	5	..........a	-327.66
	313	62.8	3.09986E-001	1.24005E-007	0.00000E+000	3.10000E-001	1.00659E-003	5	..........a	-327.66
	316	63.4	3.39985E-001	1.30749E-007	0.00000E+000	3.40000E-001	9.87792E-004	5	..........a	-327.66
	319	64	3.69952E-001	1.36832E-007	0.00000E+000	3.70000E-001	1.00179E-003	5	..........a	-327.66
	322	64.6	3.99936E-001	1.42758E-007	0.00000E+000	4.00000E-001	9.81292E-004	5	..........a	-327.66
	325	65.2	4.29969E-001	1.48901E-007	0.00000E+000	4.30000E-001	9.91592E-004	5	..........a	-327.66
	328	65.8	4.59913E-001	1.54657E-007	0.00000E+000	4.60000E-001	1.00099E-003	5	..........a	-327.66
	331	66.4	4.89902E-001	1.60888E-007	0.00000E+000	4.90000E-001	1.00839E-003	5	..........a	-327.66
	334	67	5.19902E-001	1.67633E-007	0.00000E+000	5.20000E-001	9.94092E-004	5	..........a	-327.66
	337	67.6	5.49964E-001	1.74785E-007	0.00000E+000	5.50000E-001	1.01979E-003	5	..........a	-327.66
	340	68.2	5.79907E-001	1.82113E-007	0.00000E+000	5.80000E-001	9.95592E-004	5	..........a	-327.66
	343	68.8	6.09899E-001	1.89546E-007	0.00000E+000	6.10000E-001	1.01099E-003	5	..........a	-327.66
	346	69.4	6.39844E-001	1.98179E-007	0.00000E+000	6.40000E-001	1.00789E-003	5	..........a	-327.66
	349	70	6.69923E-001	2.06354E-007	0.00000E+000	6.70000E-001	1.01329E-003	5	..........a	-327.66
	352	70.6	6.99838E-001	2.15634E-007	0.00000E+000	7.00000E-001	9.75992E-004	5	..........a	-327.66
	355	71.2	7.29863E-001	2.24607E-007	0.00000E+000	7.30000E-001	9.98692E-004	5	..........a	-327.66
	358	71.8	7.59835E-001	2.33434E-007	0.00000E+000	7.60000E-001	9.99692E-004	5	..........a	-327.66
	361	72.4	7.89934E-001	2.42450E-007	0.00000E+000	7.90000E-001	1.00589E-003	5	..........a	-327.66
[...]
	987	197.6	1.50082E-001	-3.11994E-008	0.00000E+000	1.50000E-001	9.97992E-004	5	..........a	-327.66
	990	198.2	1.20044E-001	-3.73700E-008	0.00000E+000	1.20000E-001	9.81892E-004	5	..........a	-327.66
	993	198.8	9.00999E-002	-4.34091E-008	0.00000E+000	9.00000E-002	9.71592E-004	5	..........a	-327.66
	996	199.4	6.01318E-002	-4.93359E-008	0.00000E+000	6.00000E-002	9.97692E-004	5	..........a	-327.66
	999	200	3.00763E-002	-5.50368E-008	0.00000E+000	3.00000E-002	1.00609E-003	5	..........a	-327.66
	1002	200.6	5.79417E-005	-6.21646E-008	0.00000E+000	7.45058E-009	9.89692E-004	5	..........a	-327.66
	1005	201.2	-2.99301E-002	-6.82569E-008	0.00000E+000	-3.00000E-002	9.78592E-004	5	..........a	-327.66
	1008	201.8	-5.98234E-002	-7.30246E-008	0.00000E+000	-6.00000E-002	9.66592E-004	5	..........a	-327.66
	1011	202.4	-8.98697E-002	-7.74191E-008	0.00000E+000	-9.00000E-002	9.84292E-004	5	..........a	-327.66
	1014	203	-1.19902E-001	-8.18149E-008	0.00000E+000	-1.20000E-001	9.76592E-004	5	..........a	-327.66
	1017	203.6	-1.49889E-001	-8.61990E-008	0.00000E+000	-1.50000E-001	9.93992E-004	5	..........a	-327.66
	1020	204.2	-1.79834E-001	-9.08887E-008	0.00000E+000	-1.80000E-001	9.78592E-004	5	..........a	-327.66
	1023	204.8	-2.09866E-001	-9.55834E-008	0.00000E+000	-2.10000E-001	9.74392E-004	5	..........a	-327.66
	1026	205.4	-2.39864E-001	-1.00451E-007	0.00000E+000	-2.40000E-001	9.92192E-004	5	..........a	-327.66
	1029	206	-2.69839E-001	-1.05981E-007	0.00000E+000	-2.70000E-001	9.94992E-004	5	..........a	-327.66
	1032	206.6	-2.99809E-001	-1.12241E-007	0.00000E+000	-3.00000E-001	9.89292E-004	5	..........a	-327.66
	1035	207.2	-3.29876E-001	-1.19834E-007	0.00000E+000	-3.30000E-001	9.86392E-004	5	..........a	-327.66
	1038	207.8	-3.59833E-001	-1.28069E-007	0.00000E+000	-3.60000E-001	1.00729E-003	5	..........a	-327.66
	1041	208.4	-3.89861E-001	-1.35941E-007	0.00000E+000	-3.90000E-001	9.89492E-004	5	..........a	-327.66
	1044	209	-4.19732E-001	-1.45099E-007	0.00000E+000	-4.20000E-001	9.76592E-004	5	..........a	-327.66
	1047	209.6	-4.49810E-001	-1.54884E-007	0.00000E+000	-4.50000E-001	9.77492E-004	5	..........a	-327.66
	1050	210.2	-4.79811E-001	-1.65160E-007	0.00000E+000	-4.80000E-001	9.85792E-004	5	..........a	-327.66
	1053	210.8	-5.09814E-001	-1.75566E-007	0.00000E+000	-5.10000E-001	9.89692E-004	5	..........a	-327.66
	1056	211.4	-5.39714E-001	-1.85780E-007	0.00000E+000	-5.40000E-001	9.89192E-004	5	..........a	-327.66
	1059	212	-5.69818E-001	-1.95680E-007	0.00000E+000	-5.70000E-001	9.89992E-004	5	..........a	-327.66
	1062	212.6	-5.99755E-001	-2.05301E-007	0.00000E+000	-6.00000E-001	9.93892E-004	5	..........a	-327.66
CURVE5	TABLE
	Pt	T	Vf	Im	Vu	Sig	Ach	IERange	Over	Temp
	#	s	V vs. Ref.	A	V	V	V	#	bits	deg C
	1063	212.8	-5.89803E-001	-1.77261E-007	0.00000E+000	-5.90000E-001	9.74392E-004	5	..........a	-327.66
	1064	213	-5.79771E-001	-1.58519E-007	0.00000E+000	-5.80000E-001	9.82992E-004	5	..........a	-327.66
	1065	213.2	-5.69841E-001	-1.43955E-007	0.00000E+000	-5.70000E-001	9.94592E-004	5	..........a	-327.66
	1066	213.4	-5.59829E-001	-1.31660E-007	0.00000E+000	-5.60000E-001	9.79192E-004	5	..........a	-327.66
	1067	213.6	-5.49834E-001	-1.21104E-007	0.00000E+000	-5.50000E-001	9.76492E-004	5	..........a	-327.66
	1068	213.8	-5.39753E-001	-1.11794E-007	0.00000E+000	-5.40000E-001	9.72292E-004	5	..........a	-327.66
	1069	214	-5.29835E-001	-1.03469E-007	0.00000E+000	-5.30000E-001	9.65492E-004	5	..........a	-327.66
	1070	214.2	-5.19829E-001	-9.59236E-008	0.00000E+000	-5.20000E-001	9.87592E-004	5	..........a	-327.66
	1071	214.4	-5.09850E-001	-8.90055E-008	0.00000E+000	-5.10000E-001	9.94892E-004	5	..........a	-327.66
	1072	214.6	-4.99816E-001	-8.26485E-008	0.00000E+000	-5.00000E-001	9.68192E-004	5	..........a	-327.66
	1073	214.8	-4.89844E-001	-7.67428E-008	0.00000E+000	-4.90000E-001	9.92892E-004	5	..........a	-327.66
	1074	215	-4.79835E-001	-7.12829E-008	0.00000E+000	-4.80000E-001	9.96192E-004	5	..........a	-327.66
	1075	215.2	-4.69842E-001	-6.62152E-008	0.00000E+000	-4.70000E-001	9.69492E-004	5	..........a	-327.66
	1076	215.4	-4.59808E-001	-6.14562E-008	0.00000E+000	-4.60000E-001	9.81792E-004	5	..........a	-327.66
	1077	215.6	-4.49839E-001	-5.69904E-008	0.00000E+000	-4.50000E-001	9.71992E-004	5	..........a	-327.66
	1078	215.8	-4.39875E-001	-5.28180E-008	0.00000E+000	-4.40000E-001	9.87192E-004	5	..........a	-327.66
	1079	216	-4.29863E-001	-4.88588E-008	0.00000E+000	-4.30000E-001	9.80992E-004	5	..........a	-327.66
	1080	216.2	-4.19813E-001	-4.51295E-008	0.00000E+000	-4.20000E-001	9.67792E-004	5	..........a	-327.66
	1081	216.4	-4.09879E-001	-4.15810E-008	0.00000E+000	-4.10000E-001	9.74092E-004	5	..........a	-327.66
	1082	216.6	-3.99885E-001	-3.81262E-008	0.00000E+000	-4.00000E-001	1.00479E-003	5	..........a	-327.66
	1083	216.8	-3.89912E-001	-3.49406E-008	0.00000E+000	-3.90000E-001	9.90792E-004	5	..........a	-327.66
	1084	217	-3.79851E-001	-3.18114E-008	0.00000E+000	-3.80000E-001	9.82792E-004	5	..........a	-327.66
	1085	217.2	-3.69872E-001	-2.88281E-008	0.00000E+000	-3.70000E-001	9.61392E-004	5	..........a	-327.66
	1086	217.4	-3.59903E-001	-2.59275E-008	0.00000E+000	-3.60000E-001	9.73592E-004	5	..........a	-327.66
	1087	217.6	-3.49886E-001	-2.31673E-008	0.00000E+000	-3.50000E-001	9.98092E-004	5	..........a	-327.66
	1088	217.8	-3.39843E-001	-2.05012E-008	0.00000E+000	-3.40000E-001	9.73892E-004	5	..........a	-327.66
	1089	218	-3.29917E-001	-1.78815E-008	0.00000E+000	-3.30000E-001	9.85992E-004	5	..........a	-327.66
	1090	218.2	-3.19864E-001	-1.53349E-008	0.00000E+000	-3.20000E-001	9.75092E-004	5	..........a	-327.66
	1091	218.4	-3.09917E-001	-1.28722E-008	0.00000E+000	-3.10000E-001	9.74092E-004	5	..........a	-327.66
	1092	218.6	-2.99856E-001	-1.04905E-008	0.00000E+000	-3.00000E-001	9.77792E-004	5	..........a	-327.66
	1093	218.8	-2.89906E-001	-8.12498E-009	0.00000E+000	-2.90000E-001	9.71492E-004	5	..........a	-327.66
	1094	219	-2.79898E-001	-5.82256E-009	0.00000E+000	-2.80000E-001	9.95192E-004	5	..........a	-327.66
	1095	219.2	-2.69876E-001	-3.58009E-009	0.00000E+000	-2.70000E-001	9.80492E-004	5	..........a	-327.66
	1096	219.4	-2.59842E-001	-1.35427E-009	0.00000E+000	-2.60000E-001	9.80492E-004	5	..........a	-327.66
	1097	219.6	-2.49899E-001	8.31588E-010	0.00000E+000	-2.50000E-001	9.76892E-004	5	..........a	-327.66
	1098	219.8	-2.39975E-001	3.02190E-009	0.00000E+000	-2.40000E-001	9.86592E-004	5	..........a	-327.66
	1099	220	-2.29959E-001	5.13560E-009	0.00000E+000	-2.30000E-001	9.96192E-004	5	..........a	-327.66
	1100	220.2	-2.19897E-001	7.25334E-009	0.00000E+000	-2.20000E-001	9.82292E-004	5	..........a	-327.66
	1101	220.4	-2.09945E-001	9.34281E-009	0.00000E+000	-2.10000E-001	1.00939E-003	5	..........a	-327.66
	1102	220.6	-1.99981E-001	1.14224E-008	0.00000E+000	-2.00000E-001	1.00259E-003	5	..........a	-327.66
	1103	220.8	-1.90006E-001	1.35220E-008	0.00000E+000	-1.90000E-001	9.86392E-004	5	..........a	-327.66
	1104	221	-1.79930E-001	1.56099E-008	0.00000E+000	-1.80000E-001	9.74592E-004	5	..........a	-327.66
	1105	221.2	-1.69913E-001	1.77306E-008	0.00000E+000	-1.70000E-001	9.93792E-004	5	..........a	-327.66
	1106	221.4	-1.59996E-001	1.98524E-008	0.00000E+000	-1.60000E-001	9.87892E-004	5	..........a	-327.66
	1107	221.6	-1.49988E-001	2.20370E-008	0.00000E+000	-1.50000E-001	9.92492E-004	5	..........a	-327.66
	1108	221.8	-1.39899E-001	2.43362E-008	0.00000E+000	-1.40000E-001	9.80992E-004	5	..........a	-327.66
	1109	222	-1.29963E-001	2.66590E-008	0.00000E+000	-1.30000E-001	1.00429E-003	5	..........a	-327.66
	1110	222.2	-1.19978E-001	2.90238E-008	0.00000E+000	-1.20000E-001	9.94292E-004	5	..........a	-327.66
	1111	222.4	-1.09969E-001	3.12065E-008	0.00000E+000	-1.10000E-001	9.80992E-004	5	..........a	-327.66
	1112	222.6	-9.99192E-002	3.33560E-008	0.00000E+000	-1.00000E-001	9.75892E-004	5	..........a	-327.66
	1113	222.8	-8.99206E-002	3.53820E-008	0.00000E+000	-9.00000E-002	9.91092E-004	5	..........a	-327.66
	1114	223	-7.99791E-002	3.73823E-008	0.00000E+000	-8.00000E-002	9.85092E-004	5	..........a	-327.66
	1115	223.2	-6.99477E-002	3.96596E-008	0.00000E+000	-7.00000E-002	9.77692E-004	5	..........a	-327.66
	1116	223.4	-5.99064E-002	4.19854E-008	0.00000E+000	-6.00000E-002	9.79492E-004	5	..........a	-327.66
	1117	223.6	-4.99601E-002	4.43583E-008	0.00000E+000	-5.00000E-002	9.86692E-004	5	..........a	-327.66
	1118	223.8	-3.99471E-002	4.66523E-008	0.00000E+000	-4.00000E-002	9.93292E-004	5	..........a	-327.66
	1119	224	-3.00071E-002	4.91650E-008	0.00000E+000	-3.00000E-002	9.98392E-004	5	..........a	-327.66
	1120	224.2	-1.99543E-002	5.16824E-008	0.00000E+000	-2.00000E-002	9.80692E-004	5	..........a	-327.66