File: data/raw/batch_data/20240424_ZJ_GM0016_HL03_E09_CV50K.DTA
EXPLAIN
TAG	CV
TITLE	LABEL	Cyclic Voltammetry	Test &Identifier
DATE	LABEL	4/24/2024	Date
TIME	LABEL	18:45:56	Time
NOTES	NOTES	1	&Notes...

PSTAT	PSTAT	REF600P-43058	Potentiostat
VINIT	POTEN	0.00000E+000	T	Initial &E (V)
VLIMIT1	POTEN	-6.00000E-001	F	Scan Limit &1 (V)
VLIMIT2	POTEN	8.00000E-001	F	Scan Limit &2 (V)
VFINAL	POTEN	0.00000E+000	T	Final &E (V)
SCANRATE	QUANT	4.99999E+004	&Scan Rate (mV/s)
STEPSIZE	QUANT	1.00000E+001	St&ep Size (mV)
CYCLES	IQUANT	10	C&ycles (#)
IMODE	SELECTOR	0	I/E Range &Mode
IRANGE	QUANT	1.00000E-005	&Max Current (mA)
AREA	QUANT	1.00000E+000	Electrode &Area (cm^2)
ELECTRODETYPE	SELECTOR	0	Electrode Type
STRIPPING	TOGGLE	F	Used for Stripping
POLARITY	TOGGLE	F	Signal Polarity
CONDIT	TWOPARAM	F	1.50000E+001	0.00000E+000	Conditionin&g	Time(s)	E(V)
DELAY	TWOPARAM	T	1.00000E+001	0.00000E+000	Init. De&lay	Time(s)	Stab.(mV/s)
EQDELAY	QUANT	1.00000E+001	Equil. &Time (s)
IRCOMP	SELECTOR	0	IRCom&p
PFCOR	QUANT	5.00000E+001	PF Corr. (ohm)
SAMPLINGMODE	SELECTOR	1	Sampling &Mode
OCVCURVE	TABLE	39
	Pt	T	Vf	Vm	Ach	Over	Temp
	#	s	V vs. Ref.	V	V	bits	deg C
	0	0.258333	6.72285E-002	6.72285E-002	2.41259E-004	..........a	-327.66
	1	0.516667	6.72214E-002	6.68598E-002	2.40992E-004	..........a	-327.66
	2	0.775	6.71776E-002	6.64795E-002	2.50859E-004	..........a	-327.66
	3	1.03333	6.70514E-002	6.61010E-002	2.35326E-004	..........a	-327.66
	4	1.29167	6.68203E-002	6.57201E-002	2.46859E-004	..........a	-327.66
	5	1.55	6.65033E-002	6.53193E-002	2.25326E-004	..........a	-327.66
	6	1.80833	6.61372E-002	6.49404E-002	2.46459E-004	..........a	-327.66
	7	2.06667	6.57508E-002	6.45438E-002	2.33659E-004	..........a	-327.66
	8	2.325	6.53588E-002	6.41450E-002	2.54592E-004	..........a	-327.66
	9	2.58333	6.49656E-002	6.37400E-002	2.43926E-004	..........a	-327.66
	10	2.84167	6.45706E-002	6.33392E-002	2.55726E-004	..........a	-327.66
	11	3.1	6.41726E-002	6.29328E-002	2.45659E-004	..........a	-327.66
	12	3.35833	6.37717E-002	6.25248E-002	2.48259E-004	..........a	-327.66
	13	3.61667	6.33683E-002	6.21118E-002	2.53792E-004	..........a	-327.66
	14	3.875	6.29624E-002	6.17026E-002	2.41459E-004	..........a	-327.66
	15	4.13333	6.25543E-002	6.12883E-002	2.52859E-004	..........a	-327.66
	16	4.39167	6.21444E-002	6.08791E-002	2.48592E-004	..........a	-327.66
	17	4.65	6.17333E-002	6.04663E-002	2.57926E-004	..........a	-327.66
	18	4.90833	6.13217E-002	6.00487E-002	2.53526E-004	..........a	-327.66
	19	5.16667	6.09095E-002	5.96389E-002	2.49726E-004	..........a	-327.66
	20	5.425	6.04966E-002	5.92254E-002	2.45459E-004	..........a	-327.66
	21	5.68333	6.00834E-002	5.88105E-002	2.50792E-004	..........a	-327.66
	22	5.94167	5.96701E-002	5.83977E-002	2.53392E-004	..........a	-327.66
	23	6.2	5.92568E-002	5.79848E-002	2.46926E-004	..........a	-327.66
	24	6.45833	5.88434E-002	5.75744E-002	2.47592E-004	..........a	-327.66
	25	6.71667	5.84304E-002	5.71611E-002	2.47526E-004	..........a	-327.66
	26	6.975	5.80178E-002	5.67503E-002	2.50792E-004	..........a	-327.66
	27	7.23333	5.76056E-002	5.63364E-002	2.52726E-004	..........a	-327.66
	28	7.49167	5.71935E-002	5.59238E-002	2.49392E-004	..........a	-327.66
	29	7.75	5.67812E-002	5.55103E-002	2.60259E-004	..........a	-327.66
	30	8.00833	5.63684E-002	5.50867E-002	2.37059E-004	..........a	-327.66
	31	8.26667	5.59547E-002	5.46909E-002	2.51592E-004	..........a	-327.66
	32	8.525	5.55411E-002	5.42789E-002	2.59192E-004	..........a	-327.66
	33	8.78333	5.51290E-002	5.38705E-002	2.41392E-004	..........a	-327.66
	34	9.04167	5.47190E-002	5.34575E-002	2.49526E-004	..........a	-327.66
	35	9.3	5.43100E-002	5.30545E-002	2.41126E-004	..........a	-327.66
	36	9.5583	5.39013E-002	5.26524E-002	2.46592E-004	..........a	-327.66
	37	9.8167	5.34936E-002	5.22435E-002	2.43926E-004	..........a	-327.66
	38	10.075	5.30871E-002	5.18404E-002	2.52192E-004	..........a	-327.66
EOC	QUANT	0.0530871	Open Circuit (V)
PSTATMODEL	IQUANT	7	Pstat Model
PSTATSECTION	LABEL	REF600P-43058	Pstat Section
PSTATSERIALNO	LABEL	43058	Pstat Serial Number
CTRLMODE	IQUANT	1	Control Mode
ELECTROMETER	IQUANT	0	RE=0 or CS=1
IESTAB	IQUANT	2	I/E Stability
CASPEED	IQUANT	4	Control Amp Speed
CONVENTION	IQUANT	1	Current Convention
ICHRANGE	IQUANT	2	Ich Range
ICHRANGEMODE	TOGGLE	F	Ich Auto Range
ICHOFFSETENABLE	TOGGLE	F	Ich Offset Enable
ICHOFFSET	QUANT	0	Ich Offset (V)
ICHFILTER	IQUANT	1	Ich Filter
VCHRANGE	IQUANT	2	Vch Range
VCHRANGEMODE	TOGGLE	F	Vch Auto Range
VCHOFFSETENABLE	TOGGLE	F	Vch Offset Enable
VCHOFFSET	QUANT	0	Vch Offset (V)
VCHFILTER	IQUANT	1	Vch Filter
ACHRANGE	IQUANT	2	Ach Range
ACHOFFSETENABLE	TOGGLE	F	Ach Offset Enable
ACHOFFSET	QUANT	0	Ach Offset (V)
ACHFILTER	IQUANT	1	Ach Filter
IERANGELOWERLIMIT	IQUANT	1	I/E Range Lower Limit
IERANGEMODE	TOGGLE	T	I/E AutoRange
IERANGE	IQUANT	4	I/E Range
POSFEEDENABLE	TOGGLE	F	Positive Feedback IR Comp
POSFEEDRESISTANCE	QUANT	0	Positive Feedback Resistance (ohm)
ACHSELECT	IQUANT	4	Ach Select
SENSECABLEID	IQUANT	7	Sense Cable ID
PWRCABLEID	IQUANT	7	Power Cable ID
DCCALDATE	LABEL	3/22/2024	DC Calibration Date
ACCALDATE	LABEL	3/22/2024	AC Calibration Date
THERMOSELECT	IQUANT	1	Thermo Select
FRAMEWORKVERSION	LABEL	7.8.4	Framework Version
INSTRUMENTVERSION	LABEL	4.42	Instrument Version
CURVE1	TABLE
	Pt	T	Vf	Im	Vu	Sig	Ach	IERange	Over	Temp
	#	s	V vs. Ref.	A	V	V	V	#	bits	deg C
	0	0.0002	5.30471E-002	2.05000E-007	0.00000E+000	5.31000E-002	8.15923E-005	8	..........a	-327.66
	3	0.0008	2.33471E-002	-2.32510E-006	0.00000E+000	2.31000E-002	8.15923E-005	8	..........a	-327.66
	6	0.0014	-6.75289E-003	-3.81515E-006	0.00000E+000	-6.90000E-003	8.15923E-005	8	..........a	-327.66
	9	0.002	-3.65529E-002	-4.81519E-006	0.00000E+000	-3.69000E-002	8.15923E-005	8	..........a	-327.66
	12	0.0026	-6.68529E-002	-5.54522E-006	0.00000E+000	-6.69000E-002	8.15923E-005	8	..........a	-327.66
	15	0.0032	-9.69529E-002	-6.13524E-006	0.00000E+000	-9.69000E-002	8.15923E-005	8	..........a	-327.66
	18	0.0038	-1.26853E-001	-6.64526E-006	0.00000E+000	-1.26900E-001	8.15923E-005	8	..........a	-327.66
	21	0.0044	-1.56953E-001	-7.01528E-006	0.00000E+000	-1.56900E-001	8.15923E-005	8	..........a	-327.66
	24	0.005	-1.86903E-001	-7.38529E-006	0.00000E+000	-1.86900E-001	8.15923E-005	8	..........a	-327.66
	27	0.0056	-2.16653E-001	-7.71530E-006	0.00000E+000	-2.16900E-001	8.15923E-005	8	..........a	-327.66
	30	0.0062	-2.46753E-001	-8.09532E-006	0.00000E+000	-2.46900E-001	8.15923E-005	8	..........a	-327.66
	33	0.0068	-2.76853E-001	-8.31533E-006	0.00000E+000	-2.76900E-001	8.15923E-005	8	..........a	-327.66
	36	0.0074	-3.06753E-001	-8.64534E-006	0.00000E+000	-3.06900E-001	8.15923E-005	8	..........a	-327.66
	39	0.008	-3.36653E-001	-9.04535E-006	0.00000E+000	-3.36900E-001	8.15923E-005	8	..........a	-327.66
	42	0.0086	-3.66753E-001	-9.41537E-006	0.00000E+000	-3.66900E-001	8.15923E-005	8	..........a	-327.66
	45	0.0092	-3.96853E-001	-9.80538E-006	0.00000E+000	-3.96900E-001	8.15923E-005	8	..........a	-327.66
	48	0.0098	-4.26753E-001	-1.02454E-005	0.00000E+000	-4.26900E-001	8.15923E-005	8	..........a	-327.66
	51	0.0104	-4.56753E-001	-1.06754E-005	0.00000E+000	-4.56900E-001	8.15923E-005	8	..........a	-327.66
	54	0.011	-4.86753E-001	-1.11654E-005	0.00000E+000	-4.86900E-001	8.15923E-005	8	..........a	-327.66
	57	0.0116	-5.16953E-001	-1.15955E-005	0.00000E+000	-5.16900E-001	8.15923E-005	8	..........a	-327.66
	60	0.0122	-5.46653E-001	-1.20055E-005	0.00000E+000	-5.46900E-001	8.15923E-005	8	..........a	-327.66
	63	0.0128	-5.76853E-001	-1.24255E-005	0.00000E+000	-5.76900E-001	8.15923E-005	8	..........a	-327.66
	66	0.0134	-5.86753E-001	-1.06454E-005	0.00000E+000	-5.86900E-001	-1.18408E-004	8	..........a	-327.66
	69	0.014	-5.56853E-001	-6.50526E-006	0.00000E+000	-5.56900E-001	8.15923E-005	8	..........a	-327.66
	72	0.0146	-5.26753E-001	-3.79515E-006	0.00000E+000	-5.26900E-001	8.15923E-005	8	..........a	-327.66
	75	0.0152	-4.96653E-001	-1.75508E-006	0.00000E+000	-4.96900E-001	8.15923E-005	8	..........a	-327.66
	78	0.0158	-4.66953E-001	-1.85015E-007	0.00000E+000	-4.66900E-001	8.15923E-005	8	..........a	-327.66
	81	0.0164	-4.36903E-001	1.11503E-006	0.00000E+000	-4.36900E-001	8.15923E-005	8	..........a	-327.66
	84	0.017	-4.06753E-001	2.17508E-006	0.00000E+000	-4.06900E-001	8.15923E-005	8	..........a	-327.66
	87	0.0176	-3.76853E-001	3.10511E-006	0.00000E+000	-3.76900E-001	8.15923E-005	8	..........a	-327.66
	90	0.0182	-3.46853E-001	3.82514E-006	0.00000E+000	-3.46900E-001	8.15923E-005	8	..........a	-327.66
	93	0.0188	-3.16853E-001	4.45516E-006	0.00000E+000	-3.16900E-001	-2.18408E-004	8	..........a	-327.66
	96	0.0194	-2.86953E-001	5.03519E-006	0.00000E+000	-2.86900E-001	8.15923E-005	8	..........a	-327.66
	99	0.02	-2.56753E-001	5.59521E-006	0.00000E+000	-2.56900E-001	8.15923E-005	8	..........a	-327.66
	102	0.0206	-2.26853E-001	6.00522E-006	0.00000E+000	-2.26900E-001	8.15923E-005	8	..........a	-327.66
	105	0.0212	-1.96853E-001	6.43524E-006	0.00000E+000	-1.96900E-001	8.15923E-005	8	..........a	-327.66
	108	0.0218	-1.66903E-001	6.78525E-006	0.00000E+000	-1.66900E-001	8.15923E-005	8	..........a	-327.66
	111	0.0224	-1.36853E-001	7.10526E-006	0.00000E+000	-1.36900E-001	8.15923E-005	8	..........a	-327.66
	114	0.023	-1.06753E-001	7.51528E-006	0.00000E+000	-1.06900E-001	8.15923E-005	8	..........a	-327.66
	117	0.0236	-7.68529E-002	7.82529E-006	0.00000E+000	-7.69000E-002	8.15923E-005	8	..........a	-327.66
	120	0.0242	-4.69529E-002	8.14530E-006	0.00000E+000	-4.69000E-002	8.15923E-005	8	..........a	-327.66
	123	0.0248	-1.67529E-002	8.47532E-006	0.00000E+000	-1.69000E-002	8.15923E-005	8	..........a	-327.66
	126	0.0254	1.32971E-002	8.81533E-006	0.00000E+000	1.31000E-002	8.15923E-005	8	..........a	-327.66
	129	0.026	4.32471E-002	9.18534E-006	0.00000E+000	4.31000E-002	8.15923E-005	8	..........a	-327.66
	132	0.0266	7.29971E-002	9.58536E-006	0.00000E+000	7.31000E-002	8.15923E-005	8	..........a	-327.66
	135	0.0272	1.03447E-001	9.95537E-006	0.00000E+000	1.03100E-001	8.15923E-005	8	..........a	-327.66
	138	0.0278	1.33147E-001	1.03554E-005	0.00000E+000	1.33100E-001	8.15923E-005	8	..........a	-327.66
	141	0.0284	1.63147E-001	1.08254E-005	0.00000E+000	1.63100E-001	8.15923E-005	8	..........a	-327.66
	144	0.029	1.93147E-001	1.12654E-005	0.00000E+000	1.93100E-001	8.15923E-005	8	..........a	-327.66
	147	0.0296	2.23147E-001	1.17854E-005	0.00000E+000	2.23100E-001	-2.18408E-004	8	..........a	-327.66
	150	0.0302	2.53147E-001	1.23255E-005	0.00000E+000	2.53100E-001	8.15923E-005	8	..........a	-327.66
	153	0.0308	2.82847E-001	1.30055E-005	0.00000E+000	2.83100E-001	8.15923E-005	8	..........a	-327.66
	156	0.0314	3.13047E-001	1.37055E-005	0.00000E+000	3.13100E-001	8.15923E-005	8	..........a	-327.66
	159	0.032	3.43247E-001	1.43355E-005	0.00000E+000	3.43100E-001	8.15923E-005	8	..........a	-327.66
	162	0.0326	3.73247E-001	1.48356E-005	0.00000E+000	3.73100E-001	8.15923E-005	8	..........a	-327.66
	165	0.0332	4.03147E-001	1.53356E-005	0.00000E+000	4.03100E-001	8.15923E-005	8	..........a	-327.66
	168	0.0338	4.33147E-001	1.58656E-005	0.00000E+000	4.33100E-001	8.15923E-005	8	..........a	-327.66
	171	0.0344	4.62947E-001	1.64356E-005	0.00000E+000	4.63100E-001	8.15923E-005	8	..........a	-327.66
	174	0.035	4.93147E-001	1.68956E-005	0.00000E+000	4.93100E-001	-2.18408E-004	8	..........a	-327.66
	177	0.0356	5.23047E-001	1.73457E-005	0.00000E+000	5.23100E-001	8.15923E-005	8	..........a	-327.66
	180	0.0362	5.53047E-001	1.76057E-005	0.00000E+000	5.53100E-001	8.15923E-005	8	..........a	-327.66
	183	0.0368	5.83197E-001	1.78857E-005	0.00000E+000	5.83100E-001	8.15923E-005	8	..........a	-327.66
	186	0.0374	6.13147E-001	1.82357E-005	0.00000E+000	6.13100E-001	8.15923E-005	8	..........a	-327.66
	189	0.038	6.43097E-001	1.86557E-005	0.00000E+000	6.43100E-001	8.15923E-005	8	..........a	-327.66
	192	0.0386	6.73147E-001	1.91457E-005	0.00000E+000	6.73100E-001	8.15923E-005	8	..........a	-327.66
	195	0.0392	7.03147E-001	1.94457E-005	0.00000E+000	7.03100E-001	8.15923E-005	8	..........a	-327.66
	198	0.0398	7.33147E-001	1.96957E-005	0.00000E+000	7.33100E-001	8.15923E-005	8	..........a	-327.66
	201	0.0404	7.63047E-001	1.98057E-005	0.00000E+000	7.63100E-001	8.15923E-005	8	..........a	-327.66
	204	0.041	7.93147E-001	1.99158E-005	0.00000E+000	7.93100E-001	8.15923E-005	8	..........a	-327.66
	205	0.0412	8.03047E-001	1.99858E-005	0.00000E+000	8.03100E-001	8.15923E-005	8	..........a	-327.66
CURVE2	TABLE
	Pt	T	Vf	Im	Vu	Sig	Ach	IERange	Over	Temp
	#	s	V vs. Ref.	A	V	V	V	#	bits	deg C
	206	0.0414	7.89947E-001	1.66856E-005	0.00000E+000	7.90000E-001	8.15923E-005	8	..........a	-327.66
	209	0.042	7.60097E-001	1.12854E-005	0.00000E+000	7.60000E-001	8.15923E-005	8	..........a	-327.66
	212	0.0426	7.29647E-001	7.58528E-006	0.00000E+000	7.30000E-001	8.15923E-005	8	..........a	-327.66
	215	0.0432	6.99947E-001	4.79518E-006	0.00000E+000	7.00000E-001	8.15923E-005	8	..........a	-327.66
	218	0.0438	6.69797E-001	2.57509E-006	0.00000E+000	6.70000E-001	8.15923E-005	8	..........a	-327.66
	221	0.0444	6.39947E-001	7.55021E-007	0.00000E+000	6.40000E-001	8.15923E-005	8	..........a	-327.66
	224	0.045	6.09947E-001	-8.15039E-007	0.00000E+000	6.10000E-001	-3.18408E-004	8	..........a	-327.66
	227	0.0456	5.80097E-001	-2.13509E-006	0.00000E+000	5.80000E-001	8.15923E-005	8	..........a	-327.66
	230	0.0462	5.49997E-001	-3.27513E-006	0.00000E+000	5.50000E-001	8.15923E-005	8	..........a	-327.66
	233	0.0468	5.19947E-001	-4.23517E-006	0.00000E+000	5.20000E-001	8.15923E-005	8	..........a	-327.66
	236	0.0474	4.89947E-001	-5.16521E-006	0.00000E+000	4.90000E-001	8.15923E-005	8	..........a	-327.66
	239	0.048	4.60247E-001	-6.01524E-006	0.00000E+000	4.60000E-001	8.15923E-005	8	..........a	-327.66
	242	0.0486	4.29947E-001	-6.87527E-006	0.00000E+000	4.30000E-001	8.15923E-005	8	..........a	-327.66
	245	0.0492	4.00047E-001	-7.72530E-006	0.00000E+000	4.00000E-001	8.15923E-005	8	..........a	-327.66
	248	0.0498	3.70047E-001	-8.59534E-006	0.00000E+000	3.70000E-001	8.15923E-005	8	..........a	-327.66
	251	0.0504	3.39947E-001	-9.43537E-006	0.00000E+000	3.40000E-001	8.15923E-005	8	..........a	-327.66
	254	0.051	3.09947E-001	-1.02654E-005	0.00000E+000	3.10000E-001	8.15923E-005	8	..........a	-327.66
	257	0.0516	2.79947E-001	-1.10354E-005	0.00000E+000	2.80000E-001	8.15923E-005	8	..........a	-327.66
	260	0.0522	2.49747E-001	-1.16155E-005	0.00000E+000	2.50000E-001	-3.18408E-004	8	..........a	-327.66
	263	0.0528	2.20147E-001	-1.21755E-005	0.00000E+000	2.20000E-001	8.15923E-005	8	..........a	-327.66
	266	0.0534	1.89947E-001	-1.28155E-005	0.00000E+000	1.90000E-001	8.15923E-005	8	..........a	-327.66
	269	0.054	1.60147E-001	-1.32955E-005	0.00000E+000	1.60000E-001	8.15923E-005	8	..........a	-327.66
	272	0.0546	1.30247E-001	-1.37555E-005	0.00000E+000	1.30000E-001	8.15923E-005	8	..........a	-327.66
	275	0.0552	1.00247E-001	-1.41355E-005	0.00000E+000	1.00000E-001	8.15923E-005	8	..........a	-327.66
	278	0.0558	7.00471E-002	-1.45356E-005	0.00000E+000	7.00000E-002	8.15923E-005	8	..........a	-327.66
	281	0.0564	4.00471E-002	-1.48756E-005	0.00000E+000	4.00000E-002	-2.18408E-004	8	..........a	-327.66
	284	0.057	1.00471E-002	-1.51356E-005	0.00000E+000	1.00000E-002	8.15923E-005	8	..........a	-327.66
	287	0.0576	-1.97529E-002	-1.52356E-005	0.00000E+000	-2.00000E-002	8.15923E-005	8	..........a	-327.66
	290	0.0582	-5.00029E-002	-1.50556E-005	0.00000E+000	-5.00000E-002	8.15923E-005	8	..........a	-327.66
	293	0.0588	-7.98529E-002	-1.48556E-005	0.00000E+000	-8.00000E-002	8.15923E-005	8	..........a	-327.66
	296	0.0594	-1.10053E-001	-1.46956E-005	0.00000E+000	-1.10000E-001	8.15923E-005	8	..........a	-327.66
	299	0.06	-1.39853E-001	-1.46956E-005	0.00000E+000	-1.40000E-001	8.15923E-005	8	..........a	-327.66
	302	0.0606	-1.69953E-001	-1.46056E-005	0.00000E+000	-1.70000E-001	8.15923E-005	8	..........a	-327.66
	305	0.0612	-1.99953E-001	-1.45256E-005	0.00000E+000	-2.00000E-001	8.15923E-005	8	..........a	-327.66
	308	0.0618	-2.30053E-001	-1.43556E-005	0.00000E+000	-2.30000E-001	8.15923E-005	8	..........a	-327.66
	311	0.0624	-2.59953E-001	-1.41355E-005	0.00000E+000	-2.60000E-001	8.15923E-005	8	..........a	-327.66
	314	0.063	-2.89953E-001	-1.39155E-005	0.00000E+000	-2.90000E-001	8.15923E-005	8	..........a	-327.66
	317	0.0636	-3.19853E-001	-1.36855E-005	0.00000E+000	-3.20000E-001	8.15923E-005	8	..........a	-327.66
	320	0.0642	-3.49953E-001	-1.35055E-005	0.00000E+000	-3.50000E-001	8.15923E-005	8	..........a	-327.66
	323	0.0648	-3.79853E-001	-1.33255E-005	0.00000E+000	-3.80000E-001	8.15923E-005	8	..........a	-327.66
	326	0.0654	-4.09853E-001	-1.32355E-005	0.00000E+000	-4.10000E-001	8.15923E-005	8	..........a	-327.66
	329	0.066	-4.39953E-001	-1.31755E-005	0.00000E+000	-4.40000E-001	8.15923E-005	8	..........a	-327.66
	332	0.0666	-4.69853E-001	-1.31755E-005	0.00000E+000	-4.70000E-001	8.15923E-005	8	..........a	-327.66
	335	0.0672	-4.99953E-001	-1.31755E-005	0.00000E+000	-5.00000E-001	8.15923E-005	8	..........a	-327.66
	338	0.0678	-5.29853E-001	-1.32055E-005	0.00000E+000	-5.30000E-001	8.15923E-005	8	..........a	-327.66
	341	0.0684	-5.59753E-001	-1.33155E-005	0.00000E+000	-5.60000E-001	-3.18408E-004	8	..........a	-327.66
	344	0.069	-5.89953E-001	-1.34755E-005	0.00000E+000	-5.90000E-001	8.15923E-005	8	..........a	-327.66
	347	0.0696	-5.79853E-001	-9.71538E-006	0.00000E+000	-5.80000E-001	8.15923E-005	8	..........a	-327.66
	350	0.0702	-5.49953E-001	-6.07524E-006	0.00000E+000	-5.50000E-001	-2.18408E-004	8	..........a	-327.66
[...]
	2698	0.5398	5.29947E-001	1.76557E-005	0.00000E+000	5.30000E-001	-3.18408E-004	8	..........a	-327.66
	2701	0.5404	5.60047E-001	1.77657E-005	0.00000E+000	5.60000E-001	8.15923E-005	8	..........a	-327.66
	2704	0.541	5.89947E-001	1.79157E-005	0.00000E+000	5.90000E-001	8.15923E-005	8	..........a	-327.66
	2707	0.5416	6.19847E-001	1.81457E-005	0.00000E+000	6.20000E-001	8.15923E-005	8	..........a	-327.66
	2710	0.5422	6.49897E-001	1.83157E-005	0.00000E+000	6.50000E-001	8.15923E-005	8	..........a	-327.66
	2713	0.5428	6.79947E-001	1.85457E-005	0.00000E+000	6.80000E-001	8.15923E-005	8	..........a	-327.66
	2716	0.5434	7.09947E-001	1.86657E-005	0.00000E+000	7.10000E-001	8.15923E-005	8	..........a	-327.66
	2719	0.544	7.40147E-001	1.87257E-005	0.00000E+000	7.40000E-001	8.15923E-005	8	..........a	-327.66
	2722	0.5446	7.69847E-001	1.87857E-005	0.00000E+000	7.70000E-001	8.15923E-005	8	..........a	-327.66
	2725	0.5452	7.99947E-001	1.88357E-005	0.00000E+000	8.00000E-001	8.15923E-005	8	..........a	-327.66
CURVE11	TABLE
	Pt	T	Vf	Im	Vu	Sig	Ach	IERange	Over	Temp
	#	s	V vs. Ref.	A	V	V	V	#	bits	deg C
	2726	0.5454	7.89947E-001	1.60456E-005	0.00000E+000	7.90000E-001	8.15923E-005	8	..........a	-327.66
	2727	0.5456	7.80047E-001	1.39855E-005	0.00000E+000	7.80000E-001	8.15923E-005	8	..........a	-327.66
	2728	0.5458	7.70047E-001	1.21855E-005	0.00000E+000	7.70000E-001	8.15923E-005	8	..........a	-327.66
	2729	0.546	7.60147E-001	1.07154E-005	0.00000E+000	7.60000E-001	8.15923E-005	8	..........a	-327.66
	2730	0.5462	7.49947E-001	9.36535E-006	0.00000E+000	7.50000E-001	8.15923E-005	8	..........a	-327.66
	2731	0.5464	7.40047E-001	8.19531E-006	0.00000E+000	7.40000E-001	8.15923E-005	8	..........a	-327.66
	2732	0.5466	7.30097E-001	7.08526E-006	0.00000E+000	7.30000E-001	8.15923E-005	8	..........a	-327.66
	2733	0.5468	7.19747E-001	6.10523E-006	0.00000E+000	7.20000E-001	-3.18408E-004	8	..........a	-327.66
	2734	0.547	7.09897E-001	5.14519E-006	0.00000E+000	7.10000E-001	8.15923E-005	8	..........a	-327.66
	2735	0.5472	7.00047E-001	4.31516E-006	0.00000E+000	7.00000E-001	8.15923E-005	8	..........a	-327.66
	2736	0.5474	6.89947E-001	3.53513E-006	0.00000E+000	6.90000E-001	8.15923E-005	8	..........a	-327.66
	2737	0.5476	6.79847E-001	2.82510E-006	0.00000E+000	6.80000E-001	8.15923E-005	8	..........a	-327.66
	2738	0.5478	6.69847E-001	2.15507E-006	0.00000E+000	6.70000E-001	8.15923E-005	8	..........a	-327.66
	2739	0.548	6.60147E-001	1.54505E-006	0.00000E+000	6.60000E-001	8.15923E-005	8	..........a	-327.66
	2740	0.5482	6.50047E-001	8.85026E-007	0.00000E+000	6.50000E-001	8.15923E-005	8	..........a	-327.66
	2741	0.5484	6.40047E-001	3.75006E-007	0.00000E+000	6.40000E-001	8.15923E-005	8	..........a	-327.66
	2742	0.5486	6.29947E-001	-1.65014E-007	0.00000E+000	6.30000E-001	8.15923E-005	8	..........a	-327.66
	2743	0.5488	6.19847E-001	-6.75034E-007	0.00000E+000	6.20000E-001	8.15923E-005	8	..........a	-327.66
	2744	0.549	6.09947E-001	-1.13505E-006	0.00000E+000	6.10000E-001	8.15923E-005	8	..........a	-327.66
	2745	0.5492	5.99947E-001	-1.55507E-006	0.00000E+000	6.00000E-001	8.15923E-005	8	..........a	-327.66
	2746	0.5494	5.89947E-001	-2.01509E-006	0.00000E+000	5.90000E-001	8.15923E-005	8	..........a	-327.66
	2747	0.5496	5.80147E-001	-2.38510E-006	0.00000E+000	5.80000E-001	8.15923E-005	8	..........a	-327.66
	2748	0.5498	5.70047E-001	-2.81512E-006	0.00000E+000	5.70000E-001	8.15923E-005	8	..........a	-327.66
	2749	0.55	5.59847E-001	-3.15513E-006	0.00000E+000	5.60000E-001	8.15923E-005	8	..........a	-327.66
	2750	0.5502	5.50047E-001	-3.48514E-006	0.00000E+000	5.50000E-001	8.15923E-005	8	..........a	-327.66
	2751	0.5504	5.40147E-001	-3.84516E-006	0.00000E+000	5.40000E-001	8.15923E-005	8	..........a	-327.66
	2752	0.5506	5.29947E-001	-4.20517E-006	0.00000E+000	5.30000E-001	8.15923E-005	8	..........a	-327.66
	2753	0.5508	5.19947E-001	-4.55518E-006	0.00000E+000	5.20000E-001	8.15923E-005	8	..........a	-327.66
	2754	0.551	5.09947E-001	-4.88519E-006	0.00000E+000	5.10000E-001	8.15923E-005	8	..........a	-327.66
	2755	0.5512	5.00147E-001	-5.17521E-006	0.00000E+000	5.00000E-001	8.15923E-005	8	..........a	-327.66
	2756	0.5514	4.89947E-001	-5.49522E-006	0.00000E+000	4.90000E-001	-3.18408E-004	8	..........a	-327.66
	2757	0.5516	4.80047E-001	-5.79523E-006	0.00000E+000	4.80000E-001	8.15923E-005	8	..........a	-327.66
	2758	0.5518	4.70047E-001	-6.11524E-006	0.00000E+000	4.70000E-001	8.15923E-005	8	..........a	-327.66
	2759	0.552	4.60047E-001	-6.43525E-006	0.00000E+000	4.60000E-001	8.15923E-005	8	..........a	-327.66
	2760	0.5522	4.50047E-001	-6.71527E-006	0.00000E+000	4.50000E-001	8.15923E-005	8	..........a	-327.66
	2761	0.5524	4.40047E-001	-7.01528E-006	0.00000E+000	4.40000E-001	8.15923E-005	8	..........a	-327.66
	2762	0.5526	4.29997E-001	-7.35529E-006	0.00000E+000	4.30000E-001	8.15923E-005	8	..........a	-327.66
	2763	0.5528	4.20147E-001	-7.59530E-006	0.00000E+000	4.20000E-001	8.15923E-005	8	..........a	-327.66
	2764	0.553	4.09947E-001	-7.87531E-006	0.00000E+000	4.10000E-001	8.15923E-005	8	..........a	-327.66
	2765	0.5532	4.00147E-001	-8.11532E-006	0.00000E+000	4.00000E-001	8.15923E-005	8	..........a	-327.66
	2766	0.5534	3.90047E-001	-8.24532E-006	0.00000E+000	3.90000E-001	8.15923E-005	8	..........a	-327.66
	2767	0.5536	3.80147E-001	-8.51533E-006	0.00000E+000	3.80000E-001	8.15923E-005	8	..........a	-327.66
	2768	0.5538	3.70047E-001	-8.64534E-006	0.00000E+000	3.70000E-001	8.15923E-005	8	..........a	-327.66
	2769	0.554	3.60047E-001	-8.88535E-006	0.00000E+000	3.60000E-001	8.15923E-005	8	..........a	-327.66
	2770	0.5542	3.49947E-001	-9.12536E-006	0.00000E+000	3.50000E-001	8.15923E-005	8	..........a	-327.66
	2771	0.5544	3.40047E-001	-9.41537E-006	0.00000E+000	3.40000E-001	8.15923E-005	8	..........a	-327.66
	2772	0.5546	3.30047E-001	-9.61538E-006	0.00000E+000	3.30000E-001	8.15923E-005	8	..........a	-327.66
	2773	0.5548	3.20147E-001	-9.84538E-006	0.00000E+000	3.20000E-001	8.15923E-005	8	..........a	-327.66
	2774	0.555	3.10047E-001	-1.01254E-005	0.00000E+000	3.10000E-001	8.15923E-005	8	..........a	-327.66
	2775	0.5552	3.00247E-001	-1.03354E-005	0.00000E+000	3.00000E-001	8.15923E-005	8	..........a	-327.66
	2776	0.5554	2.90047E-001	-1.05954E-005	0.00000E+000	2.90000E-001	8.15923E-005	8	..........a	-327.66
	2777	0.5556	2.79947E-001	-1.08354E-005	0.00000E+000	2.80000E-001	8.15923E-005	8	..........a	-327.66
	2778	0.5558	2.70047E-001	-1.10654E-005	0.00000E+000	2.70000E-001	8.15923E-005	8	..........a	-327.66
	2779	0.556	2.60047E-001	-1.13554E-005	0.00000E+000	2.60000E-001	8.15923E-005	8	..........a	-327.66
	2780	0.5562	2.49947E-001	-1.15955E-005	0.00000E+000	2.50000E-001	8.15923E-005	8	..........a	-327.66
	2781	0.5564	2.40047E-001	-1.17555E-005	0.00000E+000	2.40000E-001	8.15923E-005	8	..........a	-327.66
	2782	0.5566	2.29947E-001	-1.20355E-005	0.00000E+000	2.30000E-001	8.15923E-005	8	..........a	-327.66
	2783	0.5568	2.19947E-001	-1.22255E-005	0.00000E+000	2.20000E-001	8.15923E-005	8	..........a	-327.66
	2784	0.557	2.10047E-001	-1.24255E-005	0.00000E+000	2.10000E-001	8.15923E-005	8	..........a	-327.66
	2785	0.5572	2.00047E-001	-1.26255E-005	0.00000E+000	2.00000E-001	8.15923E-005	8	..........a	-327.66
	2786	0.5574	1.89847E-001	-1.28155E-005	0.00000E+000	1.90000E-001	8.15923E-005	8	..........a	-327.66
	2787	0.5576	1.80247E-001	-1.29855E-005	0.00000E+000	1.80000E-001	8.15923E-005	8	..........a	-327.66
	2788	0.5578	1.70047E-001	-1.31955E-005	0.00000E+000	1.70000E-001	8.15923E-005	8	..........a	-327.66
	2789	0.558	1.60047E-001	-1.32755E-005	0.00000E+000	1.60000E-001	8.15923E-005	8	..........a	-327.66
	2790	0.5582	1.50047E-001	-1.34155E-005	0.00000E+000	1.50000E-001	-3.18408E-004	8	..........a	-327.66
	2791	0.5584	1.40047E-001	-1.35555E-005	0.00000E+000	1.40000E-001	8.15923E-005	8	..........a	-327.66
	2792	0.5586	1.29947E-001	-1.37355E-005	0.00000E+000	1.30000E-001	8.15923E-005	8	..........a	-327.66
	2793	0.5588	1.20147E-001	-1.38055E-005	0.00000E+000	1.20000E-001	8.15923E-005	8	..........a	-327.66
	2794	0.559	1.10047E-001	-1.38855E-005	0.00000E+000	1.10000E-001	8.15923E-005	8	..........a	-327.66
	2795	0.5592	1.00147E-001	-1.40555E-005	0.00000E+000	1.00000E-001	8.15923E-005	8	..........a	-327.66
	2796	0.5594	9.00471E-002	-1.41856E-005	0.00000E+000	9.00000E-002	8.15923E-005	8	..........a	-327.66
	2797	0.5596	7.98471E-002	-1.42856E-005	0.00000E+000	8.00000E-002	8.15923E-005	8	..........a	-327.66
	2798	0.5598	7.00971E-002	-1.43956E-005	0.00000E+000	7.00000E-002	8.15923E-005	8	..........a	-327.66
	2799	0.56	6.00471E-002	-1.45156E-005	0.00000E+000	6.00000E-002	8.15923E-005	8	..........a	-327.66
	2800	0.5602	4.98471E-002	-1.46556E-005	0.00000E+000	5.00000E-002	-1.18408E-004	8	..........a	-327.66