File: data/raw/batch_data/20240321_ZN_GM0016_HL03_E10_CV50k.DTA
EXPLAIN
TAG	CV
TITLE	LABEL	Cyclic Voltammetry	Test &Identifier
DATE	LABEL	3/21/2024	Date
TIME	LABEL	18:46:02	Time
NOTES	NOTES	1	&Notes...

PSTAT	PSTAT	REF600P-43058	Potentiostat
VINIT	POTEN	0.00000E+000	T	Initial &E (V)
VLIMIT1	POTEN	-6.00000E-001	F	Scan Limit &1 (V)
VLIMIT2	POTEN	8.00000E-001	F	Scan Limit &2 (V)
VFINAL	POTEN	0.00000E+000	T	Final &E (V)
SCANRATE	QUANT	4.99999E+004	&Scan Rate (mV/s)
STEPSIZE	QUANT	1.00000E+001	St&ep Size (mV)
CYCLES	IQUANT	10	C&ycles (#)
IMODE	SELECTOR	1	I/E Range &Mode
IRANGE	QUANT	1.00000E-005	&Max Current (mA)
AREA	QUANT	1.00000E+000	Electrode &Area (cm^2)
ELECTRODETYPE	SELECTOR	0	Electrode Type
STRIPPING	TOGGLE	F	Used for Stripping
POLARITY	TOGGLE	F	Signal Polarity
CONDIT	TWOPARAM	F	1.50000E+001	0.00000E+000	Conditionin&g	Time(s)	E(V)
DELAY	TWOPARAM	T	1.00000E+001	0.00000E+000	Init. De&lay	Time(s)	Stab.(mV/s)
EQDELAY	QUANT	1.00000E+001	Equil. &Time (s)
IRCOMP	SELECTOR	0	IRCom&p
PFCOR	QUANT	5.00000E+001	PF Corr. (ohm)
SAMPLINGMODE	SELECTOR	1	Sampling &Mode
OCVCURVE	TABLE	39
	Pt	T	Vf	Vm	Ach	Over	Temp
	#	s	V vs. Ref.	V	V	bits	deg C
	0	0.258333	4.55194E-001	4.55194E-001	2.76622E-004	..........a	-327.66
	1	0.516667	4.55196E-001	4.55266E-001	2.66956E-004	..........a	-327.66
	2	0.775	4.55207E-001	4.55461E-001	2.62422E-004	..........a	-327.66
	3	1.03333	4.55246E-001	4.55683E-001	2.50356E-004	..........a	-327.66
	4	1.29167	4.55336E-001	4.55954E-001	2.69289E-004	..........a	-327.66
	5	1.55	4.55486E-001	4.56160E-001	2.53222E-004	..........a	-327.66
	6	1.80833	4.55686E-001	4.56432E-001	2.42822E-004	..........a	-327.66
	7	2.06667	4.55917E-001	4.56790E-001	2.70022E-004	..........a	-327.66
	8	2.325	4.56167E-001	4.56844E-001	2.69822E-004	..........a	-327.66
	9	2.58333	4.56420E-001	4.57047E-001	2.60422E-004	..........a	-327.66
	10	2.84167	4.56654E-001	4.57283E-001	2.63622E-004	..........a	-327.66
	11	3.1	4.56864E-001	4.57552E-001	2.71156E-004	..........a	-327.66
	12	3.35833	4.57069E-001	4.57765E-001	2.69289E-004	..........a	-327.66
	13	3.61667	4.57286E-001	4.58014E-001	2.63956E-004	..........a	-327.66
	14	3.875	4.57519E-001	4.58385E-001	2.65756E-004	..........a	-327.66
	15	4.13333	4.57766E-001	4.58433E-001	2.79756E-004	..........a	-327.66
	16	4.39167	4.58015E-001	4.58637E-001	2.67889E-004	..........a	-327.66
	17	4.65	4.58246E-001	4.58873E-001	2.53556E-004	..........a	-327.66
	18	4.90833	4.58454E-001	4.59142E-001	2.66022E-004	..........a	-327.66
	19	5.16667	4.58659E-001	4.59348E-001	2.67956E-004	..........a	-327.66
	20	5.425	4.58875E-001	4.59548E-001	2.48022E-004	..........a	-327.66
	21	5.68333	4.59101E-001	4.59943E-001	2.56089E-004	..........a	-327.66
	22	5.94167	4.59339E-001	4.60053E-001	2.64022E-004	..........a	-327.66
	23	6.2	4.59583E-001	4.60211E-001	2.64756E-004	..........a	-327.66
	24	6.45833	4.59817E-001	4.60403E-001	2.70956E-004	..........a	-327.66
	25	6.71667	4.60028E-001	4.60690E-001	2.61289E-004	..........a	-327.66
	26	6.975	4.60227E-001	4.60884E-001	2.54489E-004	..........a	-327.66
	27	7.23333	4.60431E-001	4.61071E-001	2.49889E-004	..........a	-327.66
	28	7.49167	4.60646E-001	4.61449E-001	2.62622E-004	..........a	-327.66
	29	7.75	4.60874E-001	4.61631E-001	2.68889E-004	..........a	-327.66
	30	8.00833	4.61115E-001	4.61779E-001	2.47489E-004	..........a	-327.66
	31	8.26667	4.61355E-001	4.61959E-001	2.58822E-004	..........a	-327.66
	32	8.525	4.61576E-001	4.62208E-001	2.51489E-004	..........a	-327.66
	33	8.78333	4.61779E-001	4.62424E-001	2.66556E-004	..........a	-327.66
	34	9.04167	4.61980E-001	4.62639E-001	2.51689E-004	..........a	-327.66
	35	9.3	4.62189E-001	4.62905E-001	2.57356E-004	..........a	-327.66
	36	9.5583	4.62411E-001	4.63204E-001	2.58956E-004	..........a	-327.66
	37	9.8167	4.62645E-001	4.63302E-001	2.67622E-004	..........a	-327.66
	38	10.075	4.62882E-001	4.63475E-001	2.62022E-004	..........a	-327.66
EOC	QUANT	0.4628818	Open Circuit (V)
PSTATMODEL	IQUANT	7	Pstat Model
PSTATSECTION	LABEL	REF600P-43058	Pstat Section
PSTATSERIALNO	LABEL	43058	Pstat Serial Number
CTRLMODE	IQUANT	1	Control Mode
ELECTROMETER	IQUANT	0	RE=0 or CS=1
IESTAB	IQUANT	2	I/E Stability
CASPEED	IQUANT	4	Control Amp Speed
CONVENTION	IQUANT	1	Current Convention
ICHRANGE	IQUANT	2	Ich Range
ICHRANGEMODE	TOGGLE	F	Ich Auto Range
ICHOFFSETENABLE	TOGGLE	F	Ich Offset Enable
ICHOFFSET	QUANT	0	Ich Offset (V)
ICHFILTER	IQUANT	1	Ich Filter
VCHRANGE	IQUANT	2	Vch Range
VCHRANGEMODE	TOGGLE	F	Vch Auto Range
VCHOFFSETENABLE	TOGGLE	F	Vch Offset Enable
VCHOFFSET	QUANT	0	Vch Offset (V)
VCHFILTER	IQUANT	1	Vch Filter
ACHRANGE	IQUANT	2	Ach Range
ACHOFFSETENABLE	TOGGLE	F	Ach Offset Enable
ACHOFFSET	QUANT	0	Ach Offset (V)
ACHFILTER	IQUANT	1	Ach Filter
IERANGELOWERLIMIT	IQUANT	1	I/E Range Lower Limit
IERANGEMODE	TOGGLE	F	I/E AutoRange
IERANGE	IQUANT	4	I/E Range
POSFEEDENABLE	TOGGLE	F	Positive Feedback IR Comp
POSFEEDRESISTANCE	QUANT	0	Positive Feedback Resistance (ohm)
ACHSELECT	IQUANT	4	Ach Select
SENSECABLEID	IQUANT	7	Sense Cable ID
PWRCABLEID	IQUANT	7	Power Cable ID
DCCALDATE	LABEL	12/18/2023	DC Calibration Date
ACCALDATE	LABEL	12/18/2023	AC Calibration Date
THERMOSELECT	IQUANT	1	Thermo Select
FRAMEWORKVERSION	LABEL	7.8.4	Framework Version
INSTRUMENTVERSION	LABEL	4.42	Instrument Version
CURVE1	TABLE
	Pt	T	Vf	Im	Vu	Sig	Ach	IERange	Over	Temp
	#	s	V vs. Ref.	A	V	V	V	#	bits	deg C
	0	0.0002	4.62870E-001	1.77883E-011	0.00000E+000	4.62900E-001	8.00223E-005	4	..........a	-327.66
	3	0.0008	4.32970E-001	-1.13217E-010	0.00000E+000	4.32900E-001	8.00223E-005	4	..........a	-327.66
	6	0.0014	4.02870E-001	-2.63222E-010	0.00000E+000	4.02900E-001	8.00223E-005	4	..........a	-327.66
	9	0.002	3.72820E-001	-4.35229E-010	0.00000E+000	3.72900E-001	8.00223E-005	4	..........a	-327.66
	12	0.0026	3.42870E-001	-6.23236E-010	0.00000E+000	3.42900E-001	-3.19978E-004	4	..........a	-327.66
	15	0.0032	3.13020E-001	-8.26244E-010	0.00000E+000	3.12900E-001	8.00223E-005	4	..........a	-327.66
	18	0.0038	2.82870E-001	-1.05825E-009	0.00000E+000	2.82900E-001	8.00223E-005	4	..........a	-327.66
	21	0.0044	2.52970E-001	-1.31426E-009	0.00000E+000	2.52900E-001	8.00223E-005	4	..........a	-327.66
	24	0.005	2.22870E-001	-1.58627E-009	0.00000E+000	2.22900E-001	8.00223E-005	4	..........a	-327.66
	27	0.0056	1.93170E-001	-1.88828E-009	0.00000E+000	1.92900E-001	8.00223E-005	4	..........a	-327.66
	30	0.0062	1.62870E-001	-2.25030E-009	0.00000E+000	1.62900E-001	8.00223E-005	4	..........a	-327.66
	33	0.0068	1.32970E-001	-2.63731E-009	0.00000E+000	1.32900E-001	8.00223E-005	4	..........a	-327.66
	36	0.0074	1.02970E-001	-3.07633E-009	0.00000E+000	1.02900E-001	8.00223E-005	4	..........a	-327.66
	39	0.008	7.30695E-002	-3.55835E-009	0.00000E+000	7.29000E-002	8.00223E-005	4	..........a	-327.66
	42	0.0086	4.28695E-002	-4.09037E-009	0.00000E+000	4.29000E-002	8.00223E-005	4	..........a	-327.66
	45	0.0092	1.30695E-002	-4.66639E-009	0.00000E+000	1.29000E-002	8.00223E-005	4	..........a	-327.66
	48	0.0098	-1.71305E-002	-5.27842E-009	0.00000E+000	-1.71000E-002	8.00223E-005	4	..........a	-327.66
	51	0.0104	-4.70305E-002	-5.93244E-009	0.00000E+000	-4.71000E-002	8.00223E-005	4	..........a	-327.66
	54	0.011	-7.69305E-002	-6.61147E-009	0.00000E+000	-7.71000E-002	8.00223E-005	4	..........a	-327.66
	57	0.0116	-1.07130E-001	-7.30749E-009	0.00000E+000	-1.07100E-001	8.00223E-005	4	..........a	-327.66
	60	0.0122	-1.37130E-001	-8.01852E-009	0.00000E+000	-1.37100E-001	8.00223E-005	4	..........a	-327.66
	63	0.0128	-1.66930E-001	-8.73555E-009	0.00000E+000	-1.67100E-001	8.00223E-005	4	..........a	-327.66
	66	0.0134	-1.96930E-001	-9.45958E-009	0.00000E+000	-1.97100E-001	8.00223E-005	4	..........a	-327.66
	69	0.014	-2.27030E-001	-1.01746E-008	0.00000E+000	-2.27100E-001	8.00223E-005	4	..........a	-327.66
	72	0.0146	-2.56930E-001	-1.08836E-008	0.00000E+000	-2.57100E-001	8.00223E-005	4	..........a	-327.66
	75	0.0152	-2.86730E-001	-1.15827E-008	0.00000E+000	-2.87100E-001	8.00223E-005	4	..........a	-327.66
	78	0.0158	-3.16830E-001	-1.22697E-008	0.00000E+000	-3.17100E-001	8.00223E-005	4	..........a	-327.66
	81	0.0164	-3.47030E-001	-1.29527E-008	0.00000E+000	-3.47100E-001	8.00223E-005	4	..........a	-327.66
	84	0.017	-3.77030E-001	-1.36147E-008	0.00000E+000	-3.77100E-001	8.00223E-005	4	..........a	-327.66
	87	0.0176	-4.07030E-001	-1.42668E-008	0.00000E+000	-4.07100E-001	8.00223E-005	4	..........a	-327.66
	90	0.0182	-4.36930E-001	-1.49128E-008	0.00000E+000	-4.37100E-001	8.00223E-005	4	..........a	-327.66
	93	0.0188	-4.66930E-001	-1.55498E-008	0.00000E+000	-4.67100E-001	1.80022E-004	4	..........a	-327.66
	96	0.0194	-4.97530E-001	-1.61878E-008	0.00000E+000	-4.97100E-001	8.00223E-005	4	..........a	-327.66
	99	0.02	-5.26931E-001	-1.68269E-008	0.00000E+000	-5.27100E-001	8.00223E-005	4	..........a	-327.66
	102	0.0206	-5.56930E-001	-1.74809E-008	0.00000E+000	-5.57100E-001	8.00223E-005	4	..........a	-327.66
	105	0.0212	-5.86830E-001	-1.81529E-008	0.00000E+000	-5.87100E-001	8.00223E-005	4	..........a	-327.66
	108	0.0218	-5.76930E-001	-1.85269E-008	0.00000E+000	-5.77100E-001	8.00223E-005	4	..........a	-327.66
	111	0.0224	-5.46930E-001	-1.85839E-008	0.00000E+000	-5.47100E-001	8.00223E-005	4	..........a	-327.66
	114	0.023	-5.17030E-001	-1.85369E-008	0.00000E+000	-5.17100E-001	8.00223E-005	4	..........a	-327.66
	117	0.0236	-4.86830E-001	-1.84319E-008	0.00000E+000	-4.87100E-001	8.00223E-005	4	..........a	-327.66
	120	0.0242	-4.57130E-001	-1.82839E-008	0.00000E+000	-4.57100E-001	2.80022E-004	4	..........a	-327.66
	123	0.0248	-4.26930E-001	-1.80999E-008	0.00000E+000	-4.27100E-001	8.00223E-005	4	..........a	-327.66
	126	0.0254	-3.96880E-001	-1.78929E-008	0.00000E+000	-3.97100E-001	8.00223E-005	4	..........a	-327.66
	129	0.026	-3.66930E-001	-1.76709E-008	0.00000E+000	-3.67100E-001	8.00223E-005	4	..........a	-327.66
	132	0.0266	-3.36830E-001	-1.74319E-008	0.00000E+000	-3.37100E-001	8.00223E-005	4	..........a	-327.66
	135	0.0272	-3.06930E-001	-1.71789E-008	0.00000E+000	-3.07100E-001	8.00223E-005	4	..........a	-327.66
	138	0.0278	-2.76830E-001	-1.69009E-008	0.00000E+000	-2.77100E-001	8.00223E-005	4	..........a	-327.66
	141	0.0284	-2.46930E-001	-1.66189E-008	0.00000E+000	-2.47100E-001	8.00223E-005	4	..........a	-327.66
	144	0.029	-2.16830E-001	-1.63268E-008	0.00000E+000	-2.17100E-001	8.00223E-005	4	..........a	-327.66
	147	0.0296	-1.87030E-001	-1.60178E-008	0.00000E+000	-1.87100E-001	8.00223E-005	4	..........a	-327.66
	150	0.0302	-1.57030E-001	-1.57028E-008	0.00000E+000	-1.57100E-001	8.00223E-005	4	..........a	-327.66
	153	0.0308	-1.26930E-001	-1.53718E-008	0.00000E+000	-1.27100E-001	8.00223E-005	4	..........a	-327.66
	156	0.0314	-9.71305E-002	-1.50368E-008	0.00000E+000	-9.71000E-002	8.00223E-005	4	..........a	-327.66
	159	0.032	-6.69305E-002	-1.46878E-008	0.00000E+000	-6.71000E-002	8.00223E-005	4	..........a	-327.66
	162	0.0326	-3.71305E-002	-1.43308E-008	0.00000E+000	-3.71000E-002	8.00223E-005	4	..........a	-327.66
	165	0.0332	-6.93048E-003	-1.39657E-008	0.00000E+000	-7.09999E-003	8.00223E-005	4	..........a	-327.66
	168	0.0338	2.32695E-002	-1.35967E-008	0.00000E+000	2.29000E-002	8.00223E-005	4	..........a	-327.66
	171	0.0344	5.29195E-002	-1.32047E-008	0.00000E+000	5.29000E-002	8.00223E-005	4	..........a	-327.66
	174	0.035	8.29695E-002	-1.28027E-008	0.00000E+000	8.29000E-002	8.00223E-005	4	..........a	-327.66
	177	0.0356	1.12970E-001	-1.23897E-008	0.00000E+000	1.12900E-001	8.00223E-005	4	..........a	-327.66
	180	0.0362	1.43370E-001	-1.19677E-008	0.00000E+000	1.42900E-001	8.00223E-005	4	..........a	-327.66
	183	0.0368	1.72820E-001	-1.15257E-008	0.00000E+000	1.72900E-001	8.00223E-005	4	..........a	-327.66
	186	0.0374	2.02970E-001	-1.10676E-008	0.00000E+000	2.02900E-001	8.00223E-005	4	..........a	-327.66
	189	0.038	2.33070E-001	-1.05986E-008	0.00000E+000	2.32900E-001	8.00223E-005	4	..........a	-327.66
	192	0.0386	2.63070E-001	-1.01086E-008	0.00000E+000	2.62900E-001	8.00223E-005	4	..........a	-327.66
	195	0.0392	2.92870E-001	-9.59858E-009	0.00000E+000	2.92900E-001	8.00223E-005	4	..........a	-327.66
	198	0.0398	3.22870E-001	-9.07256E-009	0.00000E+000	3.22900E-001	8.00223E-005	4	..........a	-327.66
	201	0.0404	3.52970E-001	-8.52654E-009	0.00000E+000	3.52900E-001	8.00223E-005	4	..........a	-327.66
	204	0.041	3.82970E-001	-7.96452E-009	0.00000E+000	3.82900E-001	8.00223E-005	4	..........a	-327.66
	207	0.0416	4.12970E-001	-7.38350E-009	0.00000E+000	4.12900E-001	8.00223E-005	4	..........a	-327.66
	210	0.0422	4.42870E-001	-6.78347E-009	0.00000E+000	4.42900E-001	8.00223E-005	4	..........a	-327.66
	213	0.0428	4.72970E-001	-6.16245E-009	0.00000E+000	4.72900E-001	8.00223E-005	4	..........a	-327.66
	216	0.0434	5.02869E-001	-5.52642E-009	0.00000E+000	5.02900E-001	8.00223E-005	4	..........a	-327.66
	219	0.044	5.32719E-001	-4.86140E-009	0.00000E+000	5.32900E-001	8.00223E-005	4	..........a	-327.66
	222	0.0446	5.63069E-001	-4.17437E-009	0.00000E+000	5.62900E-001	8.00223E-005	4	..........a	-327.66
	225	0.0452	5.93069E-001	-3.45735E-009	0.00000E+000	5.92900E-001	8.00223E-005	4	..........a	-327.66
	228	0.0458	6.22869E-001	-2.71532E-009	0.00000E+000	6.22900E-001	8.00223E-005	4	..........a	-327.66
	231	0.0464	6.52869E-001	-1.94029E-009	0.00000E+000	6.52900E-001	8.00223E-005	4	..........a	-327.66
	234	0.047	6.82869E-001	-1.13226E-009	0.00000E+000	6.82900E-001	8.00223E-005	4	..........a	-327.66
	237	0.0476	7.12819E-001	-2.96224E-010	0.00000E+000	7.12900E-001	8.00223E-005	4	..........a	-327.66
	240	0.0482	7.42869E-001	5.86810E-010	0.00000E+000	7.42900E-001	8.00223E-005	4	..........a	-327.66
	243	0.0488	7.72869E-001	1.50585E-009	0.00000E+000	7.72900E-001	8.00223E-005	4	..........a	-327.66
	246	0.0494	8.02869E-001	2.47588E-009	0.00000E+000	8.02900E-001	8.00223E-005	4	..........a	-327.66
CURVE2	TABLE
	Pt	T	Vf	Im	Vu	Sig	Ach	IERange	Over	Temp
	#	s	V vs. Ref.	A	V	V	V	#	bits	deg C
	247	0.0496	7.89869E-001	2.64089E-009	0.00000E+000	7.90000E-001	8.00223E-005	4	..........a	-327.66
	250	0.0502	7.59869E-001	2.95090E-009	0.00000E+000	7.60000E-001	8.00223E-005	4	..........a	-327.66
	253	0.0508	7.29970E-001	3.07091E-009	0.00000E+000	7.30000E-001	8.00223E-005	4	..........a	-327.66
	256	0.0514	6.99769E-001	3.08891E-009	0.00000E+000	7.00000E-001	8.00223E-005	4	..........a	-327.66
	259	0.052	6.69969E-001	3.03390E-009	0.00000E+000	6.70000E-001	8.00223E-005	4	..........a	-327.66
	262	0.0526	6.39820E-001	2.93790E-009	0.00000E+000	6.40000E-001	-2.19978E-004	4	..........a	-327.66
	265	0.0532	6.09769E-001	2.80390E-009	0.00000E+000	6.10000E-001	8.00223E-005	4	..........a	-327.66
	268	0.0538	5.79969E-001	2.64089E-009	0.00000E+000	5.80000E-001	8.00223E-005	4	..........a	-327.66
	271	0.0544	5.49919E-001	2.45588E-009	0.00000E+000	5.50000E-001	-3.19978E-004	4	..........a	-327.66
	274	0.055	5.19969E-001	2.25087E-009	0.00000E+000	5.20000E-001	8.00223E-005	4	..........a	-327.66
	277	0.0556	4.90070E-001	2.02387E-009	0.00000E+000	4.90000E-001	8.00223E-005	4	..........a	-327.66
	280	0.0562	4.60170E-001	1.76786E-009	0.00000E+000	4.60000E-001	8.00223E-005	4	..........a	-327.66
	283	0.0568	4.29970E-001	1.49985E-009	0.00000E+000	4.30000E-001	-2.19978E-004	4	..........a	-327.66
	286	0.0574	3.99970E-001	1.20583E-009	0.00000E+000	4.00000E-001	8.00223E-005	4	..........a	-327.66
	289	0.058	3.69970E-001	8.84822E-010	0.00000E+000	3.70000E-001	8.00223E-005	4	..........a	-327.66
	292	0.0586	3.40070E-001	5.45809E-010	0.00000E+000	3.40000E-001	-3.19978E-004	4	..........a	-327.66
	295	0.0592	3.09970E-001	1.74794E-010	0.00000E+000	3.10000E-001	8.00223E-005	4	..........a	-327.66
	298	0.0598	2.79870E-001	-2.23221E-010	0.00000E+000	2.80000E-001	8.00223E-005	4	..........a	-327.66
	301	0.0604	2.49770E-001	-6.52237E-010	0.00000E+000	2.50000E-001	8.00223E-005	4	..........a	-327.66
	304	0.061	2.20270E-001	-1.11025E-009	0.00000E+000	2.20000E-001	-1.19978E-004	4	..........a	-327.66
	307	0.0616	1.90070E-001	-1.60427E-009	0.00000E+000	1.90000E-001	8.00223E-005	4	..........a	-327.66
	310	0.0622	1.60070E-001	-2.11629E-009	0.00000E+000	1.60000E-001	-2.19978E-004	4	..........a	-327.66
	313	0.0628	1.29870E-001	-2.65031E-009	0.00000E+000	1.30000E-001	8.00223E-005	4	..........a	-327.66
	316	0.0634	1.00170E-001	-3.20834E-009	0.00000E+000	1.00000E-001	8.00223E-005	4	..........a	-327.66
	319	0.064	7.01695E-002	-3.77336E-009	0.00000E+000	7.00000E-002	8.00223E-005	4	..........a	-327.66
	322	0.0646	3.98695E-002	-4.34438E-009	0.00000E+000	4.00000E-002	8.00223E-005	4	..........a	-327.66
	325	0.0652	1.00695E-002	-4.90940E-009	0.00000E+000	1.00000E-002	8.00223E-005	4	..........a	-327.66
	328	0.0658	-1.99305E-002	-5.47042E-009	0.00000E+000	-2.00000E-002	8.00223E-005	4	..........a	-327.66
	331	0.0664	-4.99305E-002	-6.01144E-009	0.00000E+000	-5.00000E-002	8.00223E-005	4	..........a	-327.66
	334	0.067	-7.99305E-002	-6.54446E-009	0.00000E+000	-8.00000E-002	8.00223E-005	4	..........a	-327.66
	337	0.0676	-1.09930E-001	-7.06348E-009	0.00000E+000	-1.10000E-001	8.00223E-005	4	..........a	-327.66
	340	0.0682	-1.39730E-001	-7.56450E-009	0.00000E+000	-1.40000E-001	8.00223E-005	4	..........a	-327.66
	343	0.0688	-1.70030E-001	-8.05152E-009	0.00000E+000	-1.70000E-001	8.00223E-005	4	..........a	-327.66
	346	0.0694	-1.99830E-001	-8.52654E-009	0.00000E+000	-2.00000E-001	8.00223E-005	4	..........a	-327.66
	349	0.07	-2.29930E-001	-8.99456E-009	0.00000E+000	-2.30000E-001	8.00223E-005	4	..........a	-327.66
	352	0.0706	-2.59830E-001	-9.44858E-009	0.00000E+000	-2.60000E-001	8.00223E-005	4	..........a	-327.66
[...]
	2616	0.5234	-4.99830E-001	-7.16549E-009	0.00000E+000	-5.00000E-001	8.00223E-005	4	..........a	-327.66
	2619	0.524	-5.29930E-001	-7.63451E-009	0.00000E+000	-5.30000E-001	8.00223E-005	4	..........a	-327.66
	2622	0.5246	-5.59931E-001	-8.13453E-009	0.00000E+000	-5.60000E-001	8.00223E-005	4	..........a	-327.66
	2625	0.5252	-5.89830E-001	-8.65854E-009	0.00000E+000	-5.90000E-001	8.00223E-005	4	..........a	-327.66
	2628	0.5258	-5.79731E-001	-8.92055E-009	0.00000E+000	-5.80000E-001	8.00223E-005	4	..........a	-327.66
	2631	0.5264	-5.49830E-001	-8.93056E-009	0.00000E+000	-5.50000E-001	8.00223E-005	4	..........a	-327.66
	2634	0.527	-5.19930E-001	-8.87855E-009	0.00000E+000	-5.20000E-001	8.00223E-005	4	..........a	-327.66
	2637	0.5276	-4.89730E-001	-8.77055E-009	0.00000E+000	-4.90000E-001	8.00223E-005	4	..........a	-327.66
	2640	0.5282	-4.59830E-001	-8.64654E-009	0.00000E+000	-4.60000E-001	8.00223E-005	4	..........a	-327.66
	2643	0.5288	-4.29830E-001	-8.48654E-009	0.00000E+000	-4.30000E-001	8.00223E-005	4	..........a	-327.66
	2646	0.5294	-3.99930E-001	-8.31953E-009	0.00000E+000	-4.00000E-001	8.00223E-005	4	..........a	-327.66
	2649	0.53	-3.69930E-001	-8.13052E-009	0.00000E+000	-3.70000E-001	8.00223E-005	4	..........a	-327.66
	2652	0.5306	-3.39880E-001	-7.92152E-009	0.00000E+000	-3.40000E-001	8.00223E-005	4	..........a	-327.66
	2655	0.5312	-3.09830E-001	-7.71451E-009	0.00000E+000	-3.10000E-001	8.00223E-005	4	..........a	-327.66
	2658	0.5318	-2.79930E-001	-7.48150E-009	0.00000E+000	-2.80000E-001	8.00223E-005	4	..........a	-327.66
	2661	0.5324	-2.49930E-001	-7.24749E-009	0.00000E+000	-2.50000E-001	8.00223E-005	4	..........a	-327.66
	2664	0.533	-2.19930E-001	-7.00248E-009	0.00000E+000	-2.20000E-001	8.00223E-005	4	..........a	-327.66
	2667	0.5336	-1.89930E-001	-6.74947E-009	0.00000E+000	-1.90000E-001	8.00223E-005	4	..........a	-327.66
	2670	0.5342	-1.60030E-001	-6.48446E-009	0.00000E+000	-1.60000E-001	8.00223E-005	4	..........a	-327.66
	2673	0.5348	-1.29930E-001	-6.21545E-009	0.00000E+000	-1.30000E-001	8.00223E-005	4	..........a	-327.66
	2676	0.5354	-9.98305E-002	-5.93244E-009	0.00000E+000	-1.00000E-001	8.00223E-005	4	..........a	-327.66
	2679	0.536	-6.97305E-002	-5.64543E-009	0.00000E+000	-7.00000E-002	8.00223E-005	4	..........a	-327.66
	2682	0.5366	-3.99305E-002	-5.35142E-009	0.00000E+000	-4.00000E-002	-4.19978E-004	4	..........a	-327.66
	2685	0.5372	-9.93048E-003	-5.05041E-009	0.00000E+000	-1.00000E-002	8.00223E-005	4	..........a	-327.66
	2688	0.5378	2.01695E-002	-4.73239E-009	0.00000E+000	2.00000E-002	8.00223E-005	4	..........a	-327.66
	2691	0.5384	5.01695E-002	-4.41438E-009	0.00000E+000	5.00000E-002	8.00223E-005	4	..........a	-327.66
	2694	0.539	8.01695E-002	-4.07437E-009	0.00000E+000	8.00000E-002	8.00223E-005	4	..........a	-327.66
	2697	0.5396	1.10170E-001	-3.72536E-009	0.00000E+000	1.10000E-001	8.00223E-005	4	..........a	-327.66
	2700	0.5402	1.40070E-001	-3.36434E-009	0.00000E+000	1.40000E-001	8.00223E-005	4	..........a	-327.66
	2703	0.5408	1.70070E-001	-2.99033E-009	0.00000E+000	1.70000E-001	8.00223E-005	4	..........a	-327.66
	2706	0.5414	2.00170E-001	-2.59831E-009	0.00000E+000	2.00000E-001	8.00223E-005	4	..........a	-327.66
	2709	0.542	2.30070E-001	-2.18630E-009	0.00000E+000	2.30000E-001	8.00223E-005	4	..........a	-327.66
	2712	0.5426	2.59870E-001	-1.75628E-009	0.00000E+000	2.60000E-001	8.00223E-005	4	..........a	-327.66
	2715	0.5432	2.90070E-001	-1.30126E-009	0.00000E+000	2.90000E-001	8.00223E-005	4	..........a	-327.66
	2718	0.5438	3.20070E-001	-8.30244E-010	0.00000E+000	3.20000E-001	8.00223E-005	4	..........a	-327.66
	2721	0.5444	3.50070E-001	-3.38225E-010	0.00000E+000	3.50000E-001	8.00223E-005	4	..........a	-327.66
	2724	0.545	3.80070E-001	1.73794E-010	0.00000E+000	3.80000E-001	8.00223E-005	4	..........a	-327.66
	2727	0.5456	4.10070E-001	7.07815E-010	0.00000E+000	4.10000E-001	8.00223E-005	4	..........a	-327.66
	2730	0.5462	4.39970E-001	1.25384E-009	0.00000E+000	4.40000E-001	8.00223E-005	4	..........a	-327.66
	2733	0.5468	4.69870E-001	1.82686E-009	0.00000E+000	4.70000E-001	8.00223E-005	4	..........a	-327.66
	2736	0.5474	5.00170E-001	2.42388E-009	0.00000E+000	5.00000E-001	8.00223E-005	4	..........a	-327.66
	2739	0.548	5.29869E-001	3.04090E-009	0.00000E+000	5.30000E-001	8.00223E-005	4	..........a	-327.66
	2742	0.5486	5.60019E-001	3.68393E-009	0.00000E+000	5.60000E-001	8.00223E-005	4	..........a	-327.66
	2745	0.5492	5.89969E-001	4.35295E-009	0.00000E+000	5.90000E-001	8.00223E-005	4	..........a	-327.66
	2748	0.5498	6.19969E-001	5.05798E-009	0.00000E+000	6.20000E-001	8.00223E-005	4	..........a	-327.66
	2751	0.5504	6.49969E-001	5.78001E-009	0.00000E+000	6.50000E-001	8.00223E-005	4	..........a	-327.66
	2754	0.551	6.79720E-001	6.53404E-009	0.00000E+000	6.80000E-001	8.00223E-005	4	..........a	-327.66
	2757	0.5516	7.09969E-001	7.33007E-009	0.00000E+000	7.10000E-001	8.00223E-005	4	..........a	-327.66
	2760	0.5522	7.40070E-001	8.15210E-009	0.00000E+000	7.40000E-001	8.00223E-005	4	..........a	-327.66
	2763	0.5528	7.69769E-001	9.02613E-009	0.00000E+000	7.70000E-001	8.00223E-005	4	..........a	-327.66
	2766	0.5534	7.99969E-001	9.94017E-009	0.00000E+000	8.00000E-001	8.00223E-005	4	..........a	-327.66
CURVE11	TABLE
	Pt	T	Vf	Im	Vu	Sig	Ach	IERange	Over	Temp
	#	s	V vs. Ref.	A	V	V	V	#	bits	deg C
	2767	0.5536	7.89869E-001	1.01052E-008	0.00000E+000	7.90000E-001	8.00223E-005	4	..........a	-327.66
	2768	0.5538	7.79769E-001	1.02322E-008	0.00000E+000	7.80000E-001	8.00223E-005	4	..........a	-327.66
	2769	0.554	7.69969E-001	1.03212E-008	0.00000E+000	7.70000E-001	8.00223E-005	4	..........a	-327.66
	2770	0.5542	7.59869E-001	1.03862E-008	0.00000E+000	7.60000E-001	8.00223E-005	4	..........a	-327.66
	2771	0.5544	7.50069E-001	1.04252E-008	0.00000E+000	7.50000E-001	8.00223E-005	4	..........a	-327.66
	2772	0.5546	7.39969E-001	1.04542E-008	0.00000E+000	7.40000E-001	8.00223E-005	4	..........a	-327.66
	2773	0.5548	7.29869E-001	1.04602E-008	0.00000E+000	7.30000E-001	8.00223E-005	4	..........a	-327.66
	2774	0.555	7.19869E-001	1.04602E-008	0.00000E+000	7.20000E-001	8.00223E-005	4	..........a	-327.66
	2775	0.5552	7.10069E-001	1.04572E-008	0.00000E+000	7.10000E-001	8.00223E-005	4	..........a	-327.66
	2776	0.5554	6.99769E-001	1.04342E-008	0.00000E+000	7.00000E-001	8.00223E-005	4	..........a	-327.66
	2777	0.5556	6.89869E-001	1.04072E-008	0.00000E+000	6.90000E-001	8.00223E-005	4	..........a	-327.66
	2778	0.5558	6.79869E-001	1.03782E-008	0.00000E+000	6.80000E-001	8.00223E-005	4	..........a	-327.66
	2779	0.556	6.69869E-001	1.03342E-008	0.00000E+000	6.70000E-001	8.00223E-005	4	..........a	-327.66
	2780	0.5562	6.59970E-001	1.02892E-008	0.00000E+000	6.60000E-001	8.00223E-005	4	..........a	-327.66
	2781	0.5564	6.49669E-001	1.02382E-008	0.00000E+000	6.50000E-001	8.00223E-005	4	..........a	-327.66
	2782	0.5566	6.39870E-001	1.01882E-008	0.00000E+000	6.40000E-001	8.00223E-005	4	..........a	-327.66
	2783	0.5568	6.29969E-001	1.01322E-008	0.00000E+000	6.30000E-001	8.00223E-005	4	..........a	-327.66
	2784	0.557	6.19669E-001	1.00662E-008	0.00000E+000	6.20000E-001	8.00223E-005	4	..........a	-327.66
	2785	0.5572	6.09819E-001	1.00022E-008	0.00000E+000	6.10000E-001	8.00223E-005	4	..........a	-327.66
	2786	0.5574	6.00069E-001	9.93317E-009	0.00000E+000	6.00000E-001	8.00223E-005	4	..........a	-327.66
	2787	0.5576	5.89969E-001	9.86117E-009	0.00000E+000	5.90000E-001	8.00223E-005	4	..........a	-327.66
	2788	0.5578	5.79870E-001	9.78816E-009	0.00000E+000	5.80000E-001	8.00223E-005	4	..........a	-327.66
	2789	0.558	5.69770E-001	9.70716E-009	0.00000E+000	5.70000E-001	8.00223E-005	4	..........a	-327.66
	2790	0.5582	5.59969E-001	9.62616E-009	0.00000E+000	5.60000E-001	8.00223E-005	4	..........a	-327.66
	2791	0.5584	5.49869E-001	9.54815E-009	0.00000E+000	5.50000E-001	8.00223E-005	4	..........a	-327.66
	2792	0.5586	5.39769E-001	9.45615E-009	0.00000E+000	5.40000E-001	8.00223E-005	4	..........a	-327.66
	2793	0.5588	5.30069E-001	9.37215E-009	0.00000E+000	5.30000E-001	8.00223E-005	4	..........a	-327.66
	2794	0.559	5.19969E-001	9.27614E-009	0.00000E+000	5.20000E-001	8.00223E-005	4	..........a	-327.66
	2795	0.5592	5.09870E-001	9.18414E-009	0.00000E+000	5.10000E-001	8.00223E-005	4	..........a	-327.66
	2796	0.5594	5.00170E-001	9.08814E-009	0.00000E+000	5.00000E-001	8.00223E-005	4	..........a	-327.66
	2797	0.5596	4.90070E-001	8.98913E-009	0.00000E+000	4.90000E-001	8.00223E-005	4	..........a	-327.66
	2798	0.5598	4.79720E-001	8.89213E-009	0.00000E+000	4.80000E-001	8.00223E-005	4	..........a	-327.66
	2799	0.56	4.69870E-001	8.78212E-009	0.00000E+000	4.70000E-001	8.00223E-005	4	..........a	-327.66
	2800	0.5602	4.59970E-001	8.68312E-009	0.00000E+000	4.60000E-001	8.00223E-005	4	..........a	-327.66