File: data/raw/batch_data/20240509_ZZU_GM0016_HL03_E12_CV50.DTA
EXPLAIN
TAG	CV
TITLE	LABEL	Cyclic Voltammetry	Test &Identifier
DATE	LABEL	5/9/2024	Date
TIME	LABEL	14:55:41	Time
NOTES	NOTES	1	&Notes...

PSTAT	PSTAT	REF600P-43058	Potentiostat
VINIT	POTEN	0.00000E+000	T	Initial &E (V)
VLIMIT1	POTEN	8.00000E-001	F	Scan Limit &1 (V)
VLIMIT2	POTEN	-6.00000E-001	F	Scan Limit &2 (V)
VFINAL	POTEN	0.00000E+000	T	Final &E (V)
SCANRATE	QUANT	4.99999E+001	&Scan Rate (mV/s)
STEPSIZE	QUANT	1.00000E+001	St&ep Size (mV)
CYCLES	IQUANT	4	C&ycles (#)
IMODE	SELECTOR	0	I/E Range &Mode
IRANGE	QUANT	1.00000E-005	&Max Current (mA)
AREA	QUANT	1.00000E+000	Electrode &Area (cm^2)
ELECTRODETYPE	SELECTOR	0	Electrode Type
STRIPPING	TOGGLE	F	Used for Stripping
POLARITY	TOGGLE	F	Signal Polarity
CONDIT	TWOPARAM	F	1.50000E+001	0.00000E+000	Conditionin&g	Time(s)	E(V)
DELAY	TWOPARAM	T	1.00000E+001	0.00000E+000	Init. De&lay	Time(s)	Stab.(mV/s)
EQDELAY	QUANT	1.00000E+001	Equil. &Time (s)
IRCOMP	SELECTOR	0	IRCom&p
PFCOR	QUANT	5.00000E+001	PF Corr. (ohm)
SAMPLINGMODE	SELECTOR	1	Sampling &Mode
OCVCURVE	TABLE	39
	Pt	T	Vf	Vm	Ach	Over	Temp
	#	s	V vs. Ref.	V	V	bits	deg C
	0	0.258333	-5.50999E-002	-5.50999E-002	2.11192E-004	..........a	-327.66
	1	0.516667	-5.51036E-002	-5.52926E-002	2.10059E-004	..........a	-327.66
	2	0.775	-5.51264E-002	-5.54869E-002	2.04726E-004	..........a	-327.66
	3	1.03333	-5.51919E-002	-5.56859E-002	2.02459E-004	..........a	-327.66
	4	1.29167	-5.53117E-002	-5.58752E-002	2.05726E-004	..........a	-327.66
	5	1.55	-5.54751E-002	-5.60704E-002	1.98859E-004	..........a	-327.66
	6	1.80833	-5.56619E-002	-5.62480E-002	2.08526E-004	..........a	-327.66
	7	2.06667	-5.58547E-002	-5.64043E-002	2.05526E-004	..........a	-327.66
	8	2.325	-5.60432E-002	-5.65829E-002	2.08792E-004	..........a	-327.66
	9	2.58333	-5.62234E-002	-5.67389E-002	2.09792E-004	..........a	-327.66
	10	2.84167	-5.63962E-002	-5.69106E-002	2.19192E-004	..........a	-327.66
	11	3.1	-5.65647E-002	-5.70891E-002	2.14259E-004	..........a	-327.66
	12	3.35833	-5.67327E-002	-5.72753E-002	2.07126E-004	..........a	-327.66
	13	3.61667	-5.69037E-002	-5.74472E-002	2.12126E-004	..........a	-327.66
	14	3.875	-5.70787E-002	-5.76231E-002	2.19059E-004	..........a	-327.66
	15	4.13333	-5.72558E-002	-5.77967E-002	2.06859E-004	..........a	-327.66
	16	4.39167	-5.74328E-002	-5.79731E-002	1.94726E-004	..........a	-327.66
	17	4.65	-5.76088E-002	-5.81482E-002	2.02859E-004	..........a	-327.66
	18	4.90833	-5.77834E-002	-5.82836E-002	2.02192E-004	..........a	-327.66
	19	5.16667	-5.79543E-002	-5.84424E-002	2.07926E-004	..........a	-327.66
	20	5.425	-5.81190E-002	-5.86071E-002	1.99992E-004	..........a	-327.66
	21	5.68333	-5.82780E-002	-5.87599E-002	2.03259E-004	..........a	-327.66
	22	5.94167	-5.84349E-002	-5.89164E-002	2.11859E-004	..........a	-327.66
	23	6.2	-5.85915E-002	-5.90752E-002	2.11592E-004	..........a	-327.66
	24	6.45833	-5.87462E-002	-5.91186E-002	2.05259E-004	..........a	-327.66
	25	6.71667	-5.88896E-002	-5.91544E-002	2.14326E-004	..........a	-327.66
	26	6.975	-5.90081E-002	-5.92247E-002	2.15459E-004	..........a	-327.66
	27	7.23333	-5.90968E-002	-5.92982E-002	2.12526E-004	..........a	-327.66
	28	7.49167	-5.91668E-002	-5.94196E-002	1.95592E-004	..........a	-327.66
	29	7.75	-5.92364E-002	-5.95510E-002	2.15926E-004	..........a	-327.66
	30	8.00833	-5.93205E-002	-5.96977E-002	2.22726E-004	..........a	-327.66
	31	8.26667	-5.94255E-002	-5.98392E-002	2.04459E-004	..........a	-327.66
	32	8.525	-5.95488E-002	-5.99637E-002	2.13859E-004	..........a	-327.66
	33	8.78333	-5.96825E-002	-6.00888E-002	2.10792E-004	..........a	-327.66
	34	9.04167	-5.98182E-002	-6.02238E-002	2.06526E-004	..........a	-327.66
	35	9.3	-5.99514E-002	-6.03512E-002	2.08726E-004	..........a	-327.66
	36	9.5583	-6.00826E-002	-6.04958E-002	2.06659E-004	..........a	-327.66
	37	9.8167	-6.02142E-002	-6.06414E-002	2.00659E-004	..........a	-327.66
	38	10.075	-6.03492E-002	-6.08066E-002	2.06326E-004	..........a	-327.66
EOC	QUANT	-0.0603492	Open Circuit (V)
PSTATMODEL	IQUANT	7	Pstat Model
PSTATSECTION	LABEL	REF600P-43058	Pstat Section
PSTATSERIALNO	LABEL	43058	Pstat Serial Number
CTRLMODE	IQUANT	1	Control Mode
ELECTROMETER	IQUANT	0	RE=0 or CS=1
IESTAB	IQUANT	2	I/E Stability
CASPEED	IQUANT	4	Control Amp Speed
CONVENTION	IQUANT	1	Current Convention
ICHRANGE	IQUANT	2	Ich Range
ICHRANGEMODE	TOGGLE	F	Ich Auto Range
ICHOFFSETENABLE	TOGGLE	F	Ich Offset Enable
ICHOFFSET	QUANT	0	Ich Offset (V)
ICHFILTER	IQUANT	2	Ich Filter
VCHRANGE	IQUANT	2	Vch Range
VCHRANGEMODE	TOGGLE	F	Vch Auto Range
VCHOFFSETENABLE	TOGGLE	F	Vch Offset Enable
VCHOFFSET	QUANT	0	Vch Offset (V)
VCHFILTER	IQUANT	2	Vch Filter
ACHRANGE	IQUANT	2	Ach Range
ACHOFFSETENABLE	TOGGLE	F	Ach Offset Enable
ACHOFFSET	QUANT	0	Ach Offset (V)
ACHFILTER	IQUANT	1	Ach Filter
IERANGELOWERLIMIT	IQUANT	1	I/E Range Lower Limit
IERANGEMODE	TOGGLE	T	I/E AutoRange
IERANGE	IQUANT	4	I/E Range
POSFEEDENABLE	TOGGLE	F	Positive Feedback IR Comp
POSFEEDRESISTANCE	QUANT	0	Positive Feedback Resistance (ohm)
ACHSELECT	IQUANT	4	Ach Select
SENSECABLEID	IQUANT	7	Sense Cable ID
PWRCABLEID	IQUANT	7	Power Cable ID
DCCALDATE	LABEL	3/22/2024	DC Calibration Date
ACCALDATE	LABEL	3/22/2024	AC Calibration Date
THERMOSELECT	IQUANT	1	Thermo Select
FRAMEWORKVERSION	LABEL	7.8.4	Framework Version
INSTRUMENTVERSION	LABEL	4.42	Instrument Version
CURVE1	TABLE
	Pt	T	Vf	Im	Vu	Sig	Ach	IERange	Over	Temp
	#	s	V vs. Ref.	A	V	V	V	#	bits	deg C
	0	0.2	-6.02600E-002	2.04972E-009	0.00000E+000	-6.03500E-002	9.62492E-004	5	..........a	-327.66
	3	0.8	-3.03113E-002	2.20228E-008	0.00000E+000	-3.03500E-002	9.46292E-004	5	..........a	-327.66
	6	1.4	-3.06358E-004	3.49842E-008	0.00000E+000	-3.49998E-004	9.56892E-004	5	..........a	-327.66
	9	2	2.97660E-002	4.65552E-008	0.00000E+000	2.96500E-002	9.46192E-004	5	..........a	-327.66
	12	2.6	5.97027E-002	5.76195E-008	0.00000E+000	5.96500E-002	9.57992E-004	5	..........a	-327.66
	15	3.2	8.96826E-002	6.90210E-008	0.00000E+000	8.96500E-002	9.48792E-004	5	..........a	-327.66
	18	3.8	1.19651E-001	8.15722E-008	0.00000E+000	1.19650E-001	9.65092E-004	5	..........a	-327.66
	21	4.4	1.49751E-001	9.63846E-008	0.00000E+000	1.49650E-001	9.53692E-004	5	..........a	-327.66
	24	5	1.79633E-001	1.13472E-007	0.00000E+000	1.79650E-001	9.55892E-004	5	..........a	-327.66
	27	5.6	2.09584E-001	1.30961E-007	0.00000E+000	2.09650E-001	9.63792E-004	5	..........a	-327.66
	30	6.2	2.39655E-001	1.46573E-007	0.00000E+000	2.39650E-001	9.47192E-004	5	..........a	-327.66
	33	6.8	2.69637E-001	1.51713E-007	0.00000E+000	2.69650E-001	9.50592E-004	5	..........a	-327.66
	36	7.4	2.99570E-001	1.62947E-007	0.00000E+000	2.99650E-001	9.56792E-004	5	..........a	-327.66
	39	8	3.29562E-001	1.77161E-007	0.00000E+000	3.29650E-001	9.65692E-004	5	..........a	-327.66
	42	8.6	3.59620E-001	1.96895E-007	0.00000E+000	3.59650E-001	9.61592E-004	5	..........a	-327.66
	45	9.2	3.89583E-001	2.11166E-007	0.00000E+000	3.89650E-001	9.51692E-004	5	..........a	-327.66
	48	9.8	4.19544E-001	2.27745E-007	0.00000E+000	4.19650E-001	9.53992E-004	5	..........a	-327.66
	51	10.4	4.49517E-001	2.46478E-007	0.00000E+000	4.49650E-001	9.55792E-004	5	..........a	-327.66
	54	11	4.79566E-001	2.65684E-007	0.00000E+000	4.79650E-001	9.66992E-004	5	..........a	-327.66
	57	11.6	5.09477E-001	2.85607E-007	0.00000E+000	5.09650E-001	9.44892E-004	5	..........a	-327.66
	60	12.2	5.39498E-001	3.06411E-007	0.00000E+000	5.39650E-001	9.66492E-004	5	..........a	-327.66
	63	12.8	5.69457E-001	3.27931E-007	0.00000E+000	5.69650E-001	9.52192E-004	5	..........a	-327.66
	66	13.4	5.99512E-001	3.48652E-007	0.00000E+000	5.99650E-001	9.55992E-004	5	..........a	-327.66
	69	14	6.29366E-001	3.71768E-007	0.00000E+000	6.29650E-001	9.60692E-004	5	..........a	-327.66
	72	14.6	6.59427E-001	3.95692E-007	0.00000E+000	6.59650E-001	9.62392E-004	5	..........a	-327.66
	75	15.2	6.89382E-001	4.19399E-007	0.00000E+000	6.89650E-001	9.55192E-004	5	..........a	-327.66
	78	15.8	7.19477E-001	4.41905E-007	0.00000E+000	7.19650E-001	9.51992E-004	5	..........a	-327.66
	81	16.4	7.49388E-001	4.62689E-007	0.00000E+000	7.49650E-001	9.53192E-004	5	..........a	-327.66
	84	17	7.79405E-001	4.84201E-007	0.00000E+000	7.79650E-001	9.51392E-004	5	..........a	-327.66
	87	17.6	7.89408E-001	4.22774E-007	0.00000E+000	7.89650E-001	9.66592E-004	5	..........a	-327.66
	90	18.2	7.59566E-001	2.97295E-007	0.00000E+000	7.59650E-001	9.67892E-004	5	..........a	-327.66
	93	18.8	7.29481E-001	2.28921E-007	0.00000E+000	7.29650E-001	9.49292E-004	5	..........a	-327.66
	96	19.4	6.99490E-001	1.82721E-007	0.00000E+000	6.99650E-001	9.63192E-004	5	..........a	-327.66
	99	20	6.69536E-001	1.48244E-007	0.00000E+000	6.69650E-001	9.65392E-004	5	..........a	-327.66
	102	20.6	6.39574E-001	1.20780E-007	0.00000E+000	6.39650E-001	9.73392E-004	5	..........a	-327.66
	105	21.2	6.09571E-001	9.80552E-008	0.00000E+000	6.09650E-001	9.63692E-004	5	..........a	-327.66
	108	21.8	5.79627E-001	7.85506E-008	0.00000E+000	5.79650E-001	9.59892E-004	5	..........a	-327.66
	111	22.4	5.49650E-001	6.10930E-008	0.00000E+000	5.49650E-001	9.47692E-004	5	..........a	-327.66
	114	23	5.19643E-001	4.50591E-008	0.00000E+000	5.19650E-001	9.43392E-004	5	..........a	-327.66
	117	23.6	4.89591E-001	3.03481E-008	0.00000E+000	4.89650E-001	9.59392E-004	5	..........a	-327.66
	120	24.2	4.59618E-001	1.62130E-008	0.00000E+000	4.59650E-001	9.57492E-004	5	..........a	-327.66
	123	24.8	4.29705E-001	2.69349E-009	0.00000E+000	4.29650E-001	9.57792E-004	5	..........a	-327.66
	126	25.4	3.99730E-001	-1.03794E-008	0.00000E+000	3.99650E-001	9.55392E-004	5	..........a	-327.66
	129	26	3.69717E-001	-2.29593E-008	0.00000E+000	3.69650E-001	9.46192E-004	5	..........a	-327.66
	132	26.6	3.39718E-001	-3.48782E-008	0.00000E+000	3.39650E-001	9.55292E-004	5	..........a	-327.66
	135	27.2	3.09777E-001	-4.62820E-008	0.00000E+000	3.09650E-001	9.50792E-004	5	..........a	-327.66
	138	27.8	2.79678E-001	-5.70941E-008	0.00000E+000	2.79650E-001	9.51392E-004	5	..........a	-327.66
	141	28.4	2.49700E-001	-6.72256E-008	0.00000E+000	2.49650E-001	9.60092E-004	5	..........a	-327.66
	144	29	2.19636E-001	-7.66042E-008	0.00000E+000	2.19650E-001	9.51992E-004	5	..........a	-327.66
	147	29.6	1.89795E-001	-8.57036E-008	0.00000E+000	1.89650E-001	9.35492E-004	5	..........a	-327.66
	150	30.2	1.59767E-001	-9.42145E-008	0.00000E+000	1.59650E-001	9.72692E-004	5	..........a	-327.66
	153	30.8	1.29760E-001	-1.01348E-007	0.00000E+000	1.29650E-001	9.55592E-004	5	..........a	-327.66
	156	31.4	9.97720E-002	-1.07419E-007	0.00000E+000	9.96500E-002	9.50892E-004	5	..........a	-327.66
	159	32	6.98941E-002	-1.12612E-007	0.00000E+000	6.96500E-002	9.62392E-004	5	..........a	-327.66
	162	32.6	3.97853E-002	-1.17464E-007	0.00000E+000	3.96500E-002	9.65292E-004	5	..........a	-327.66
	165	33.2	9.79824E-003	-1.22444E-007	0.00000E+000	9.65001E-003	9.49492E-004	5	..........a	-327.66
	168	33.8	-2.02287E-002	-1.27541E-007	0.00000E+000	-2.03500E-002	9.60992E-004	5	..........a	-327.66
	171	34.4	-5.01876E-002	-1.32923E-007	0.00000E+000	-5.03500E-002	9.51692E-004	5	..........a	-327.66
	174	35	-8.02240E-002	-1.38837E-007	0.00000E+000	-8.03500E-002	9.62092E-004	5	..........a	-327.66
	177	35.6	-1.10232E-001	-1.45320E-007	0.00000E+000	-1.10350E-001	9.70192E-004	5	..........a	-327.66
	180	36.2	-1.40237E-001	-1.52327E-007	0.00000E+000	-1.40350E-001	9.51792E-004	5	..........a	-327.66
	183	36.8	-1.70183E-001	-1.60319E-007	0.00000E+000	-1.70350E-001	9.48392E-004	5	..........a	-327.66
	186	37.4	-2.00219E-001	-1.68975E-007	0.00000E+000	-2.00350E-001	9.57192E-004	5	..........a	-327.66
	189	38	-2.30186E-001	-1.77768E-007	0.00000E+000	-2.30350E-001	9.71392E-004	5	..........a	-327.66
	192	38.6	-2.60171E-001	-1.85945E-007	0.00000E+000	-2.60350E-001	9.51292E-004	5	..........a	-327.66
	195	39.2	-2.90067E-001	-1.93408E-007	0.00000E+000	-2.90350E-001	9.56692E-004	5	..........a	-327.66
	198	39.8	-3.20192E-001	-2.00236E-007	0.00000E+000	-3.20350E-001	9.57792E-004	5	..........a	-327.66
	201	40.4	-3.50166E-001	-2.06481E-007	0.00000E+000	-3.50350E-001	9.61892E-004	5	..........a	-327.66
	204	41	-3.80159E-001	-2.12086E-007	0.00000E+000	-3.80350E-001	9.55392E-004	5	..........a	-327.66
	207	41.6	-4.10054E-001	-2.17249E-007	0.00000E+000	-4.10350E-001	9.63492E-004	5	..........a	-327.66
	210	42.2	-4.40132E-001	-2.21935E-007	0.00000E+000	-4.40350E-001	9.48892E-004	5	..........a	-327.66
	213	42.8	-4.70097E-001	-2.26350E-007	0.00000E+000	-4.70350E-001	9.60292E-004	5	..........a	-327.66
	216	43.4	-5.00133E-001	-2.30965E-007	0.00000E+000	-5.00350E-001	9.56492E-004	5	..........a	-327.66
	219	44	-5.30076E-001	-2.36001E-007	0.00000E+000	-5.30350E-001	9.51692E-004	5	..........a	-327.66
	222	44.6	-5.60149E-001	-2.41584E-007	0.00000E+000	-5.60350E-001	9.63592E-004	5	..........a	-327.66
	225	45.2	-5.90118E-001	-2.47889E-007	0.00000E+000	-5.90350E-001	9.64392E-004	5	..........a	-327.66
	226	45.4	-6.00096E-001	-2.50213E-007	0.00000E+000	-6.00350E-001	9.58792E-004	5	..........a	-327.66
CURVE2	TABLE
	Pt	T	Vf	Im	Vu	Sig	Ach	IERange	Over	Temp
	#	s	V vs. Ref.	A	V	V	V	#	bits	deg C
	227	45.6	-5.89786E-001	-2.22120E-007	0.00000E+000	-5.90000E-001	9.54992E-004	5	..........a	-327.66
	230	46.2	-5.59802E-001	-1.77629E-007	0.00000E+000	-5.60000E-001	9.49792E-004	5	..........a	-327.66
	233	46.8	-5.29821E-001	-1.48339E-007	0.00000E+000	-5.30000E-001	9.55392E-004	5	..........a	-327.66
	236	47.4	-4.99803E-001	-1.24792E-007	0.00000E+000	-5.00000E-001	9.52192E-004	5	..........a	-327.66
	239	48	-4.69832E-001	-1.04653E-007	0.00000E+000	-4.70000E-001	9.59592E-004	5	..........a	-327.66
	242	48.6	-4.39792E-001	-8.66985E-008	0.00000E+000	-4.40000E-001	9.66892E-004	5	..........a	-327.66
	245	49.2	-4.09841E-001	-7.02274E-008	0.00000E+000	-4.10000E-001	9.51292E-004	5	..........a	-327.66
	248	49.8	-3.79816E-001	-5.50808E-008	0.00000E+000	-3.80000E-001	9.50892E-004	5	..........a	-327.66
	251	50.4	-3.49868E-001	-4.10965E-008	0.00000E+000	-3.50000E-001	9.71392E-004	5	..........a	-327.66
	254	51	-3.19877E-001	-2.79285E-008	0.00000E+000	-3.20000E-001	9.51592E-004	5	..........a	-327.66
	257	51.6	-2.89883E-001	-1.53830E-008	0.00000E+000	-2.90000E-001	9.69892E-004	5	..........a	-327.66
	260	52.2	-2.59836E-001	-3.97261E-009	0.00000E+000	-2.60000E-001	9.66192E-004	5	..........a	-327.66
	263	52.8	-2.29983E-001	7.51681E-009	0.00000E+000	-2.30000E-001	9.60592E-004	5	..........a	-327.66
	266	53.4	-1.99997E-001	1.82570E-008	0.00000E+000	-2.00000E-001	9.74392E-004	5	..........a	-327.66
	269	54	-1.69929E-001	2.84706E-008	0.00000E+000	-1.70000E-001	9.77192E-004	5	..........a	-327.66
	272	54.6	-1.39908E-001	3.83592E-008	0.00000E+000	-1.40000E-001	9.53992E-004	5	..........a	-327.66
	275	55.2	-1.10005E-001	4.79959E-008	0.00000E+000	-1.10000E-001	9.86892E-004	5	..........a	-327.66
	278	55.8	-7.99875E-002	5.72920E-008	0.00000E+000	-8.00000E-002	9.75392E-004	5	..........a	-327.66
	281	56.4	-4.99275E-002	6.64839E-008	0.00000E+000	-5.00000E-002	9.62492E-004	5	..........a	-327.66
	284	57	-1.99676E-002	7.56458E-008	0.00000E+000	-2.00000E-002	9.50492E-004	5	..........a	-327.66
	287	57.6	1.00272E-002	8.48604E-008	0.00000E+000	1.00000E-002	9.62092E-004	5	..........a	-327.66
	290	58.2	3.99621E-002	9.44039E-008	0.00000E+000	4.00000E-002	9.55692E-004	5	..........a	-327.66
	293	58.8	6.99651E-002	1.04263E-007	0.00000E+000	7.00000E-002	9.71992E-004	5	..........a	-327.66
	296	59.4	1.00019E-001	1.15064E-007	0.00000E+000	1.00000E-001	9.55692E-004	5	..........a	-327.66
	299	60	1.29976E-001	1.26615E-007	0.00000E+000	1.30000E-001	9.64392E-004	5	..........a	-327.66
	302	60.6	1.59991E-001	1.39075E-007	0.00000E+000	1.60000E-001	9.66192E-004	5	..........a	-327.66
	305	61.2	1.90030E-001	1.51761E-007	0.00000E+000	1.90000E-001	9.74792E-004	5	..........a	-327.66
	308	61.8	2.19904E-001	1.61227E-007	0.00000E+000	2.20000E-001	9.53392E-004	5	..........a	-327.66
	311	62.4	2.49906E-001	1.66056E-007	0.00000E+000	2.50000E-001	9.66292E-004	5	..........a	-327.66
	314	63	2.79898E-001	1.72241E-007	0.00000E+000	2.80000E-001	9.80492E-004	5	..........a	-327.66
	317	63.6	3.09984E-001	1.80472E-007	0.00000E+000	3.10000E-001	9.75692E-004	5	..........a	-327.66
	320	64.2	3.39956E-001	1.89967E-007	0.00000E+000	3.40000E-001	9.45592E-004	5	..........a	-327.66
	323	64.8	3.69956E-001	2.00397E-007	0.00000E+000	3.70000E-001	9.78792E-004	5	..........a	-327.66
	326	65.4	3.99926E-001	2.11397E-007	0.00000E+000	4.00000E-001	9.66292E-004	5	..........a	-327.66
	329	66	4.29956E-001	2.22667E-007	0.00000E+000	4.30000E-001	9.61092E-004	5	..........a	-327.66
	332	66.6	4.59879E-001	2.33861E-007	0.00000E+000	4.60000E-001	9.66692E-004	5	..........a	-327.66
	335	67.2	4.89850E-001	2.46737E-007	0.00000E+000	4.90000E-001	9.74292E-004	5	..........a	-327.66
	338	67.8	5.19865E-001	2.60763E-007	0.00000E+000	5.20000E-001	9.68092E-004	5	..........a	-327.66
	341	68.4	5.49895E-001	2.75839E-007	0.00000E+000	5.50000E-001	9.62592E-004	5	..........a	-327.66
	344	69	5.79847E-001	2.92916E-007	0.00000E+000	5.80000E-001	9.52892E-004	5	..........a	-327.66
	347	69.6	6.09866E-001	3.11840E-007	0.00000E+000	6.10000E-001	9.60992E-004	5	..........a	-327.66
	350	70.2	6.39757E-001	3.32575E-007	0.00000E+000	6.40000E-001	9.64092E-004	5	..........a	-327.66
	353	70.8	6.69848E-001	3.55851E-007	0.00000E+000	6.70000E-001	9.54692E-004	5	..........a	-327.66
	356	71.4	6.99772E-001	3.80780E-007	0.00000E+000	7.00000E-001	9.60392E-004	5	..........a	-327.66
	359	72	7.29757E-001	4.09370E-007	0.00000E+000	7.30000E-001	9.63092E-004	5	..........a	-327.66
[...]
	979	196	2.70100E-001	-4.92468E-008	0.00000E+000	2.70000E-001	9.58692E-004	5	..........a	-327.66
	982	196.6	2.40081E-001	-5.85682E-008	0.00000E+000	2.40000E-001	9.73192E-004	5	..........a	-327.66
	985	197.2	2.10069E-001	-6.79295E-008	0.00000E+000	2.10000E-001	9.65692E-004	5	..........a	-327.66
	988	197.8	1.80169E-001	-7.68203E-008	0.00000E+000	1.80000E-001	9.56492E-004	5	..........a	-327.66
	991	198.4	1.50128E-001	-8.48857E-008	0.00000E+000	1.50000E-001	9.67792E-004	5	..........a	-327.66
	994	199	1.20133E-001	-9.17506E-008	0.00000E+000	1.20000E-001	9.56392E-004	5	..........a	-327.66
	997	199.6	9.01469E-002	-9.79540E-008	0.00000E+000	9.00000E-002	9.62392E-004	5	..........a	-327.66
	1000	200.2	6.01625E-002	-1.03519E-007	0.00000E+000	6.00000E-002	9.48592E-004	5	..........a	-327.66
	1003	200.8	3.01172E-002	-1.08949E-007	0.00000E+000	3.00000E-002	9.49892E-004	5	..........a	-327.66
	1006	201.4	9.31417E-005	-1.14636E-007	0.00000E+000	7.45058E-009	9.78492E-004	5	..........a	-327.66
	1009	202	-2.98788E-002	-1.20533E-007	0.00000E+000	-3.00000E-002	9.53492E-004	5	..........a	-327.66
	1012	202.6	-5.98051E-002	-1.26858E-007	0.00000E+000	-6.00000E-002	9.52492E-004	5	..........a	-327.66
	1015	203.2	-8.98471E-002	-1.33474E-007	0.00000E+000	-9.00000E-002	9.62492E-004	5	..........a	-327.66
	1018	203.8	-1.19870E-001	-1.40356E-007	0.00000E+000	-1.20000E-001	9.66292E-004	5	..........a	-327.66
	1021	204.4	-1.49869E-001	-1.47899E-007	0.00000E+000	-1.50000E-001	9.51292E-004	5	..........a	-327.66
	1024	205	-1.79793E-001	-1.55864E-007	0.00000E+000	-1.80000E-001	9.59392E-004	5	..........a	-327.66
	1027	205.6	-2.09838E-001	-1.64351E-007	0.00000E+000	-2.10000E-001	9.51692E-004	5	..........a	-327.66
	1030	206.2	-2.39793E-001	-1.72093E-007	0.00000E+000	-2.40000E-001	9.58092E-004	5	..........a	-327.66
	1033	206.8	-2.69814E-001	-1.79102E-007	0.00000E+000	-2.70000E-001	9.61992E-004	5	..........a	-327.66
	1036	207.4	-2.99783E-001	-1.85549E-007	0.00000E+000	-3.00000E-001	9.59492E-004	5	..........a	-327.66
	1039	208	-3.29816E-001	-1.91453E-007	0.00000E+000	-3.30000E-001	9.63192E-004	5	..........a	-327.66
	1042	208.6	-3.59810E-001	-1.97090E-007	0.00000E+000	-3.60000E-001	9.61892E-004	5	..........a	-327.66
	1045	209.2	-3.89808E-001	-2.02404E-007	0.00000E+000	-3.90000E-001	9.68392E-004	5	..........a	-327.66
	1048	209.8	-4.19687E-001	-2.07038E-007	0.00000E+000	-4.20000E-001	9.48892E-004	5	..........a	-327.66
	1051	210.4	-4.49797E-001	-2.11357E-007	0.00000E+000	-4.50000E-001	9.54492E-004	5	..........a	-327.66
	1054	211	-4.79767E-001	-2.15827E-007	0.00000E+000	-4.80000E-001	9.54992E-004	5	..........a	-327.66
	1057	211.6	-5.09766E-001	-2.20451E-007	0.00000E+000	-5.10000E-001	9.61192E-004	5	..........a	-327.66
	1060	212.2	-5.39694E-001	-2.25555E-007	0.00000E+000	-5.40000E-001	9.65892E-004	5	..........a	-327.66
	1063	212.8	-5.69774E-001	-2.31330E-007	0.00000E+000	-5.70000E-001	9.59492E-004	5	..........a	-327.66
	1066	213.4	-5.99744E-001	-2.37614E-007	0.00000E+000	-6.00000E-001	9.59592E-004	5	..........a	-327.66
CURVE5	TABLE
	Pt	T	Vf	Im	Vu	Sig	Ach	IERange	Over	Temp
	#	s	V vs. Ref.	A	V	V	V	#	bits	deg C
	1067	213.6	-5.89775E-001	-2.11594E-007	0.00000E+000	-5.90000E-001	9.74792E-004	5	..........a	-327.66
	1068	213.8	-5.79753E-001	-1.94363E-007	0.00000E+000	-5.80000E-001	9.45792E-004	5	..........a	-327.66
	1069	214	-5.69791E-001	-1.80721E-007	0.00000E+000	-5.70000E-001	9.65792E-004	5	..........a	-327.66
	1070	214.2	-5.59811E-001	-1.69104E-007	0.00000E+000	-5.60000E-001	9.64792E-004	5	..........a	-327.66
	1071	214.4	-5.49804E-001	-1.58811E-007	0.00000E+000	-5.50000E-001	9.53592E-004	5	..........a	-327.66
	1072	214.6	-5.39712E-001	-1.49437E-007	0.00000E+000	-5.40000E-001	9.63092E-004	5	..........a	-327.66
	1073	214.8	-5.29823E-001	-1.40723E-007	0.00000E+000	-5.30000E-001	9.70692E-004	5	..........a	-327.66
	1074	215	-5.19805E-001	-1.32952E-007	0.00000E+000	-5.20000E-001	9.64792E-004	5	..........a	-327.66
	1075	215.2	-5.09820E-001	-1.25337E-007	0.00000E+000	-5.10000E-001	9.54892E-004	5	..........a	-327.66
	1076	215.4	-4.99791E-001	-1.18025E-007	0.00000E+000	-5.00000E-001	9.59892E-004	5	..........a	-327.66
	1077	215.6	-4.89801E-001	-1.11044E-007	0.00000E+000	-4.90000E-001	9.73192E-004	5	..........a	-327.66
	1078	215.8	-4.79819E-001	-1.04481E-007	0.00000E+000	-4.80000E-001	9.55792E-004	5	..........a	-327.66
	1079	216	-4.69815E-001	-9.81185E-008	0.00000E+000	-4.70000E-001	9.53292E-004	5	..........a	-327.66
	1080	216.2	-4.59768E-001	-9.21216E-008	0.00000E+000	-4.60000E-001	9.50092E-004	5	..........a	-327.66
	1081	216.4	-4.49831E-001	-8.61889E-008	0.00000E+000	-4.50000E-001	9.71992E-004	5	..........a	-327.66
	1082	216.6	-4.39834E-001	-8.05176E-008	0.00000E+000	-4.40000E-001	9.68992E-004	5	..........a	-327.66
	1083	216.8	-4.29829E-001	-7.51911E-008	0.00000E+000	-4.30000E-001	9.68892E-004	5	..........a	-327.66
	1084	217	-4.19781E-001	-6.97867E-008	0.00000E+000	-4.20000E-001	9.61192E-004	5	..........a	-327.66
	1085	217.2	-4.09832E-001	-6.46051E-008	0.00000E+000	-4.10000E-001	9.61292E-004	5	..........a	-327.66
	1086	217.4	-3.99839E-001	-5.95200E-008	0.00000E+000	-4.00000E-001	9.53192E-004	5	..........a	-327.66
	1087	217.6	-3.89868E-001	-5.46542E-008	0.00000E+000	-3.90000E-001	9.69592E-004	5	..........a	-327.66
	1088	217.8	-3.79820E-001	-4.98759E-008	0.00000E+000	-3.80000E-001	9.44792E-004	5	..........a	-327.66
	1089	218	-3.69836E-001	-4.51796E-008	0.00000E+000	-3.70000E-001	9.63292E-004	5	..........a	-327.66
	1090	218.2	-3.59867E-001	-4.06664E-008	0.00000E+000	-3.60000E-001	9.79792E-004	5	..........a	-327.66
	1091	218.4	-3.49860E-001	-3.63063E-008	0.00000E+000	-3.50000E-001	9.62092E-004	5	..........a	-327.66
	1092	218.6	-3.39819E-001	-3.18885E-008	0.00000E+000	-3.40000E-001	9.59992E-004	5	..........a	-327.66
	1093	218.8	-3.29915E-001	-2.75880E-008	0.00000E+000	-3.30000E-001	9.79292E-004	5	..........a	-327.66
	1094	219	-3.19859E-001	-2.34842E-008	0.00000E+000	-3.20000E-001	9.49392E-004	5	..........a	-327.66
	1095	219.2	-3.09879E-001	-1.93636E-008	0.00000E+000	-3.10000E-001	9.70092E-004	5	..........a	-327.66
	1096	219.4	-2.99847E-001	-1.53965E-008	0.00000E+000	-3.00000E-001	9.68092E-004	5	..........a	-327.66
	1097	219.6	-2.89892E-001	-1.15687E-008	0.00000E+000	-2.90000E-001	9.65592E-004	5	..........a	-327.66
	1098	219.8	-2.79911E-001	-7.67876E-009	0.00000E+000	-2.80000E-001	9.72892E-004	5	..........a	-327.66
	1099	220	-2.69862E-001	-3.91072E-009	0.00000E+000	-2.70000E-001	9.51992E-004	5	..........a	-327.66
	1100	220.2	-2.59831E-001	-2.45093E-010	0.00000E+000	-2.60000E-001	9.56292E-004	5	..........a	-327.66
	1101	220.4	-2.49914E-001	3.48244E-009	0.00000E+000	-2.50000E-001	9.70492E-004	5	..........a	-327.66
	1102	220.6	-2.39912E-001	6.91759E-009	0.00000E+000	-2.40000E-001	9.57292E-004	5	..........a	-327.66
	1103	220.8	-2.29951E-001	1.04374E-008	0.00000E+000	-2.30000E-001	9.61192E-004	5	..........a	-327.66
	1104	221	-2.19893E-001	1.39758E-008	0.00000E+000	-2.20000E-001	9.64492E-004	5	..........a	-327.66
	1105	221.2	-2.09911E-001	1.73763E-008	0.00000E+000	-2.10000E-001	9.66592E-004	5	..........a	-327.66
	1106	221.4	-1.99962E-001	2.07399E-008	0.00000E+000	-2.00000E-001	9.68292E-004	5	..........a	-327.66
	1107	221.6	-1.89946E-001	2.40879E-008	0.00000E+000	-1.90000E-001	9.65892E-004	5	..........a	-327.66
	1108	221.8	-1.79917E-001	2.73791E-008	0.00000E+000	-1.80000E-001	9.51792E-004	5	..........a	-327.66
	1109	222	-1.69910E-001	3.05866E-008	0.00000E+000	-1.70000E-001	9.60792E-004	5	..........a	-327.66
	1110	222.2	-1.60040E-001	3.37924E-008	0.00000E+000	-1.60000E-001	9.77292E-004	5	..........a	-327.66
	1111	222.4	-1.49967E-001	3.69790E-008	0.00000E+000	-1.50000E-001	9.62392E-004	5	..........a	-327.66
	1112	222.6	-1.39955E-001	4.00541E-008	0.00000E+000	-1.40000E-001	9.58092E-004	5	..........a	-327.66
	1113	222.8	-1.29983E-001	4.31953E-008	0.00000E+000	-1.30000E-001	9.70092E-004	5	..........a	-327.66
	1114	223	-1.19963E-001	4.62608E-008	0.00000E+000	-1.20000E-001	9.75192E-004	5	..........a	-327.66
	1115	223.2	-1.09992E-001	4.93137E-008	0.00000E+000	-1.10000E-001	9.59092E-004	5	..........a	-327.66
	1116	223.4	-9.99373E-002	5.23370E-008	0.00000E+000	-1.00000E-001	9.59492E-004	5	..........a	-327.66
	1117	223.6	-8.99298E-002	5.52792E-008	0.00000E+000	-9.00000E-002	9.51892E-004	5	..........a	-327.66
	1118	223.8	-7.99828E-002	5.82428E-008	0.00000E+000	-8.00000E-002	9.68492E-004	5	..........a	-327.66
	1119	224	-6.99502E-002	6.11229E-008	0.00000E+000	-7.00000E-002	9.64392E-004	5	..........a	-327.66
	1120	224.2	-5.99557E-002	6.40805E-008	0.00000E+000	-6.00000E-002	9.66192E-004	5	..........a	-327.66