File: data/raw/batch_data/20240321_ZU_GM0016_HL03_E12_CV50.DTA
EXPLAIN
TAG	CV
TITLE	LABEL	Cyclic Voltammetry	Test &Identifier
DATE	LABEL	3/21/2024	Date
TIME	LABEL	19:10:14	Time
NOTES	NOTES	1	&Notes...

PSTAT	PSTAT	REF600P-43058	Potentiostat
VINIT	POTEN	0.00000E+000	T	Initial &E (V)
VLIMIT1	POTEN	-6.00000E-001	F	Scan Limit &1 (V)
VLIMIT2	POTEN	8.00000E-001	F	Scan Limit &2 (V)
VFINAL	POTEN	0.00000E+000	T	Final &E (V)
SCANRATE	QUANT	4.99999E+001	&Scan Rate (mV/s)
STEPSIZE	QUANT	1.00000E+001	St&ep Size (mV)
CYCLES	IQUANT	4	C&ycles (#)
IMODE	SELECTOR	1	I/E Range &Mode
IRANGE	QUANT	1.00000E-005	&Max Current (mA)
AREA	QUANT	1.00000E+000	Electrode &Area (cm^2)
ELECTRODETYPE	SELECTOR	0	Electrode Type
STRIPPING	TOGGLE	F	Used for Stripping
POLARITY	TOGGLE	F	Signal Polarity
CONDIT	TWOPARAM	F	1.50000E+001	0.00000E+000	Conditionin&g	Time(s)	E(V)
DELAY	TWOPARAM	T	1.00000E+001	0.00000E+000	Init. De&lay	Time(s)	Stab.(mV/s)
EQDELAY	QUANT	1.00000E+001	Equil. &Time (s)
IRCOMP	SELECTOR	0	IRCom&p
PFCOR	QUANT	5.00000E+001	PF Corr. (ohm)
SAMPLINGMODE	SELECTOR	1	Sampling &Mode
OCVCURVE	TABLE	39
	Pt	T	Vf	Vm	Ach	Over	Temp
	#	s	V vs. Ref.	V	V	bits	deg C
	0	0.258333	2.20360E-001	2.20360E-001	2.55422E-004	..........a	-327.66
	1	0.516667	2.20359E-001	2.20313E-001	2.36022E-004	..........a	-327.66
	2	0.775	2.20355E-001	2.20345E-001	2.34956E-004	..........a	-327.66
	3	1.03333	2.20349E-001	2.20421E-001	2.35622E-004	..........a	-327.66
	4	1.29167	2.20353E-001	2.20521E-001	2.41156E-004	..........a	-327.66
	5	1.55	2.20380E-001	2.20639E-001	2.39489E-004	..........a	-327.66
	6	1.80833	2.20439E-001	2.20767E-001	2.37489E-004	..........a	-327.66
	7	2.06667	2.20527E-001	2.20890E-001	2.36822E-004	..........a	-327.66
	8	2.325	2.20635E-001	2.21024E-001	2.29756E-004	..........a	-327.66
	9	2.58333	2.20756E-001	2.21165E-001	2.18289E-004	..........a	-327.66
	10	2.84167	2.20884E-001	2.21312E-001	2.33222E-004	..........a	-327.66
	11	3.1	2.21018E-001	2.21468E-001	2.52022E-004	..........a	-327.66
	12	3.35833	2.21159E-001	2.21609E-001	2.40822E-004	..........a	-327.66
	13	3.61667	2.21304E-001	2.21763E-001	2.47156E-004	..........a	-327.66
	14	3.875	2.21451E-001	2.21910E-001	2.24622E-004	..........a	-327.66
	15	4.13333	2.21600E-001	2.22060E-001	2.60089E-004	..........a	-327.66
	16	4.39167	2.21750E-001	2.22209E-001	2.62156E-004	..........a	-327.66
	17	4.65	2.21899E-001	2.22364E-001	2.35756E-004	..........a	-327.66
	18	4.90833	2.22049E-001	2.22518E-001	2.29956E-004	..........a	-327.66
	19	5.16667	2.22200E-001	2.22668E-001	2.28356E-004	..........a	-327.66
	20	5.425	2.22352E-001	2.22824E-001	2.37489E-004	..........a	-327.66
	21	5.68333	2.22505E-001	2.22976E-001	2.28622E-004	..........a	-327.66
	22	5.94167	2.22658E-001	2.23129E-001	2.42556E-004	..........a	-327.66
	23	6.2	2.22811E-001	2.23275E-001	2.38556E-004	..........a	-327.66
	24	6.45833	2.22963E-001	2.23424E-001	2.33822E-004	..........a	-327.66
	25	6.71667	2.23114E-001	2.23570E-001	2.49422E-004	..........a	-327.66
	26	6.975	2.23264E-001	2.23724E-001	2.16289E-004	..........a	-327.66
	27	7.23333	2.23413E-001	2.23873E-001	2.43156E-004	..........a	-327.66
	28	7.49167	2.23562E-001	2.24028E-001	2.31756E-004	..........a	-327.66
	29	7.75	2.23712E-001	2.24169E-001	2.38756E-004	..........a	-327.66
	30	8.00833	2.23862E-001	2.24322E-001	2.49822E-004	..........a	-327.66
	31	8.26667	2.24012E-001	2.24465E-001	2.50489E-004	..........a	-327.66
	32	8.525	2.24160E-001	2.24607E-001	2.33489E-004	..........a	-327.66
	33	8.78333	2.24307E-001	2.24748E-001	2.36889E-004	..........a	-327.66
	34	9.04167	2.24452E-001	2.24886E-001	2.29622E-004	..........a	-327.66
	35	9.3	2.24595E-001	2.25030E-001	2.26489E-004	..........a	-327.66
	36	9.5583	2.24737E-001	2.25173E-001	2.52022E-004	..........a	-327.66
	37	9.8167	2.24878E-001	2.25309E-001	2.34889E-004	..........a	-327.66
	38	10.075	2.25018E-001	2.25451E-001	2.39889E-004	..........a	-327.66
EOC	QUANT	0.2250185	Open Circuit (V)
PSTATMODEL	IQUANT	7	Pstat Model
PSTATSECTION	LABEL	REF600P-43058	Pstat Section
PSTATSERIALNO	LABEL	43058	Pstat Serial Number
CTRLMODE	IQUANT	1	Control Mode
ELECTROMETER	IQUANT	0	RE=0 or CS=1
IESTAB	IQUANT	2	I/E Stability
CASPEED	IQUANT	4	Control Amp Speed
CONVENTION	IQUANT	1	Current Convention
ICHRANGE	IQUANT	2	Ich Range
ICHRANGEMODE	TOGGLE	F	Ich Auto Range
ICHOFFSETENABLE	TOGGLE	F	Ich Offset Enable
ICHOFFSET	QUANT	0	Ich Offset (V)
ICHFILTER	IQUANT	2	Ich Filter
VCHRANGE	IQUANT	2	Vch Range
VCHRANGEMODE	TOGGLE	F	Vch Auto Range
VCHOFFSETENABLE	TOGGLE	F	Vch Offset Enable
VCHOFFSET	QUANT	0	Vch Offset (V)
VCHFILTER	IQUANT	2	Vch Filter
ACHRANGE	IQUANT	2	Ach Range
ACHOFFSETENABLE	TOGGLE	F	Ach Offset Enable
ACHOFFSET	QUANT	0	Ach Offset (V)
ACHFILTER	IQUANT	1	Ach Filter
IERANGELOWERLIMIT	IQUANT	1	I/E Range Lower Limit
IERANGEMODE	TOGGLE	F	I/E AutoRange
IERANGE	IQUANT	4	I/E Range
POSFEEDENABLE	TOGGLE	F	Positive Feedback IR Comp
POSFEEDRESISTANCE	QUANT	0	Positive Feedback Resistance (ohm)
ACHSELECT	IQUANT	4	Ach Select
SENSECABLEID	IQUANT	7	Sense Cable ID
PWRCABLEID	IQUANT	7	Power Cable ID
DCCALDATE	LABEL	12/18/2023	DC Calibration Date
ACCALDATE	LABEL	12/18/2023	AC Calibration Date
THERMOSELECT	IQUANT	1	Thermo Select
FRAMEWORKVERSION	LABEL	7.8.4	Framework Version
INSTRUMENTVERSION	LABEL	4.42	Instrument Version
CURVE1	TABLE
	Pt	T	Vf	Im	Vu	Sig	Ach	IERange	Over	Temp
	#	s	V vs. Ref.	A	V	V	V	#	bits	deg C
	0	0.2	2.24977E-001	3.29431E-011	0.00000E+000	2.25000E-001	9.84822E-004	4	..........a	-327.66
	3	0.8	1.94951E-001	-2.00130E-011	0.00000E+000	1.95000E-001	1.04322E-003	4	..........a	-327.66
	6	1.4	1.65019E-001	-3.64146E-011	0.00000E+000	1.65000E-001	1.00902E-003	4	..........a	-327.66
	9	2	1.35089E-001	-4.35649E-011	0.00000E+000	1.35000E-001	9.98522E-004	4	..........a	-327.66
	12	2.6	1.05035E-001	-5.24502E-011	0.00000E+000	1.05000E-001	1.01992E-003	4	..........a	-327.66
	15	3.2	7.50055E-002	-5.79994E-011	0.00000E+000	7.50000E-002	1.02782E-003	4	..........a	-327.66
	18	3.8	4.50079E-002	-6.58117E-011	0.00000E+000	4.50000E-002	9.92022E-004	4	..........a	-327.66
	21	4.4	1.51514E-002	-7.02719E-011	0.00000E+000	1.50000E-002	1.01212E-003	4	..........a	-327.66
	24	5	-1.49884E-002	-7.51121E-011	0.00000E+000	-1.50000E-002	1.02492E-003	4	..........a	-327.66
	27	5.6	-4.50055E-002	-8.18293E-011	0.00000E+000	-4.50000E-002	1.04432E-003	4	..........a	-327.66
	30	6.2	-7.49843E-002	-8.80206E-011	0.00000E+000	-7.50000E-002	1.02362E-003	4	..........a	-327.66
	33	6.8	-1.04892E-001	-9.52549E-011	0.00000E+000	-1.05000E-001	1.00392E-003	4	..........a	-327.66
	36	7.4	-1.35005E-001	-1.03623E-010	0.00000E+000	-1.35000E-001	1.03702E-003	4	..........a	-327.66
	39	8	-1.64954E-001	-1.12554E-010	0.00000E+000	-1.65000E-001	9.88422E-004	4	..........a	-327.66
	42	8.6	-1.94991E-001	-1.23487E-010	0.00000E+000	-1.95000E-001	1.02882E-003	4	..........a	-327.66
	45	9.2	-2.24889E-001	-1.32375E-010	0.00000E+000	-2.25000E-001	1.01022E-003	4	..........a	-327.66
	48	9.8	-2.54983E-001	-1.47616E-010	0.00000E+000	-2.55000E-001	1.00402E-003	4	..........a	-327.66
	51	10.4	-2.84976E-001	-1.65372E-010	0.00000E+000	-2.85000E-001	1.01892E-003	4	..........a	-327.66
	54	11	-3.14987E-001	-1.86344E-010	0.00000E+000	-3.15000E-001	1.00062E-003	4	..........a	-327.66
	57	11.6	-3.44858E-001	-2.12094E-010	0.00000E+000	-3.45000E-001	1.04622E-003	4	..........a	-327.66
	60	12.2	-3.74960E-001	-2.43733E-010	0.00000E+000	-3.75000E-001	9.87222E-004	4	..........a	-327.66
	63	12.8	-4.04964E-001	-2.84798E-010	0.00000E+000	-4.05000E-001	1.02022E-003	4	..........a	-327.66
	66	13.4	-4.34966E-001	-3.22006E-010	0.00000E+000	-4.35000E-001	9.92222E-004	4	..........a	-327.66
	69	14	-4.64821E-001	-3.58401E-010	0.00000E+000	-4.65000E-001	1.01352E-003	4	..........a	-327.66
	72	14.6	-4.94943E-001	-4.19850E-010	0.00000E+000	-4.95000E-001	9.73922E-004	4	..........a	-327.66
	75	15.2	-5.24812E-001	-4.77619E-010	0.00000E+000	-5.25000E-001	9.94422E-004	4	..........a	-327.66
	78	15.8	-5.54943E-001	-5.47768E-010	0.00000E+000	-5.55000E-001	1.01152E-003	4	..........a	-327.66
	81	16.4	-5.84839E-001	-6.23753E-010	0.00000E+000	-5.85000E-001	9.96122E-004	4	..........a	-327.66
	84	17	-5.74961E-001	-3.52054E-010	0.00000E+000	-5.75000E-001	1.01092E-003	4	..........a	-327.66
	87	17.6	-5.44839E-001	-1.93317E-010	0.00000E+000	-5.45000E-001	1.02152E-003	4	..........a	-327.66
	90	18.2	-5.14941E-001	-1.05272E-010	0.00000E+000	-5.15000E-001	1.02702E-003	4	..........a	-327.66
	93	18.8	-4.84929E-001	-4.92071E-011	0.00000E+000	-4.85000E-001	1.02812E-003	4	..........a	-327.66
	96	19.4	-4.54943E-001	-7.59849E-012	0.00000E+000	-4.55000E-001	1.01562E-003	4	..........a	-327.66
	99	20	-4.24879E-001	2.37387E-011	0.00000E+000	-4.25000E-001	1.01262E-003	4	..........a	-327.66
	102	20.6	-3.95238E-001	4.55935E-011	0.00000E+000	-3.95000E-001	1.02522E-003	4	..........a	-327.66
	105	21.2	-3.64984E-001	6.49993E-011	0.00000E+000	-3.65000E-001	1.02802E-003	4	..........a	-327.66
	108	21.8	-3.34963E-001	7.92278E-011	0.00000E+000	-3.35000E-001	1.00102E-003	4	..........a	-327.66
	111	22.4	-3.04868E-001	9.07003E-011	0.00000E+000	-3.05000E-001	9.76822E-004	4	..........a	-327.66
	114	23	-2.74936E-001	9.84996E-011	0.00000E+000	-2.75000E-001	1.00432E-003	4	..........a	-327.66
	117	23.6	-2.44989E-001	1.07453E-010	0.00000E+000	-2.45000E-001	1.02772E-003	4	..........a	-327.66
	120	24.2	-2.14967E-001	1.14294E-010	0.00000E+000	-2.15000E-001	9.84922E-004	4	..........a	-327.66
	123	24.8	-1.84880E-001	1.19872E-010	0.00000E+000	-1.85000E-001	1.00682E-003	4	..........a	-327.66
	126	25.4	-1.54993E-001	1.27474E-010	0.00000E+000	-1.55000E-001	1.02252E-003	4	..........a	-327.66
	129	26	-1.25007E-001	1.28431E-010	0.00000E+000	-1.25000E-001	1.02362E-003	4	..........a	-327.66
	132	26.6	-9.49808E-002	1.31469E-010	0.00000E+000	-9.50000E-002	1.00612E-003	4	..........a	-327.66
	135	27.2	-6.49431E-002	1.36254E-010	0.00000E+000	-6.50000E-002	1.02872E-003	4	..........a	-327.66
	138	27.8	-3.49903E-002	1.41604E-010	0.00000E+000	-3.50000E-002	1.01652E-003	4	..........a	-327.66
	141	28.4	-5.01751E-003	1.52606E-010	0.00000E+000	-5.00000E-003	1.00242E-003	4	..........a	-327.66
	144	29	2.50112E-002	1.55939E-010	0.00000E+000	2.50000E-002	1.01602E-003	4	..........a	-327.66
	147	29.6	5.51075E-002	1.61395E-010	0.00000E+000	5.50000E-002	9.92922E-004	4	..........a	-327.66
	150	30.2	8.50343E-002	1.72844E-010	0.00000E+000	8.50000E-002	1.01492E-003	4	..........a	-327.66
	153	30.8	1.15018E-001	1.85861E-010	0.00000E+000	1.15000E-001	9.95622E-004	4	..........a	-327.66
	156	31.4	1.45025E-001	1.95826E-010	0.00000E+000	1.45000E-001	1.02002E-003	4	..........a	-327.66
	159	32	1.75150E-001	2.10842E-010	0.00000E+000	1.75000E-001	9.97522E-004	4	..........a	-327.66
	162	32.6	2.04961E-001	2.25574E-010	0.00000E+000	2.05000E-001	9.98122E-004	4	..........a	-327.66
	165	33.2	2.34974E-001	2.54818E-010	0.00000E+000	2.35000E-001	1.02552E-003	4	..........a	-327.66
	168	33.8	2.64987E-001	2.86434E-010	0.00000E+000	2.65000E-001	1.00162E-003	4	..........a	-327.66
	171	34.4	2.95128E-001	3.28091E-010	0.00000E+000	2.95000E-001	1.00912E-003	4	..........a	-327.66
	174	35	3.24967E-001	3.76711E-010	0.00000E+000	3.25000E-001	1.01472E-003	4	..........a	-327.66
	177	35.6	3.54975E-001	4.30589E-010	0.00000E+000	3.55000E-001	1.03072E-003	4	..........a	-327.66
	180	36.2	3.84983E-001	4.82658E-010	0.00000E+000	3.85000E-001	1.03942E-003	4	..........a	-327.66
	183	36.8	4.15022E-001	5.34202E-010	0.00000E+000	4.15000E-001	1.02122E-003	4	..........a	-327.66
	186	37.4	4.44990E-001	5.80821E-010	0.00000E+000	4.45000E-001	1.01872E-003	4	..........a	-327.66
	189	38	4.74849E-001	6.24307E-010	0.00000E+000	4.75000E-001	1.02602E-003	4	..........a	-327.66
	192	38.6	5.04935E-001	6.62302E-010	0.00000E+000	5.05000E-001	9.98122E-004	4	..........a	-327.66
	195	39.2	5.35083E-001	6.99859E-010	0.00000E+000	5.35000E-001	1.00092E-003	4	..........a	-327.66
	198	39.8	5.64942E-001	7.32963E-010	0.00000E+000	5.65000E-001	9.83222E-004	4	..........a	-327.66
	201	40.4	5.94889E-001	7.68981E-010	0.00000E+000	5.95000E-001	1.03462E-003	4	..........a	-327.66
	204	41	6.24928E-001	8.04022E-010	0.00000E+000	6.25000E-001	1.00472E-003	4	..........a	-327.66
	207	41.6	6.55056E-001	8.41960E-010	0.00000E+000	6.55000E-001	1.02642E-003	4	..........a	-327.66
	210	42.2	6.84820E-001	8.83328E-010	0.00000E+000	6.85000E-001	1.00052E-003	4	..........a	-327.66
	213	42.8	7.14864E-001	9.31424E-010	0.00000E+000	7.15000E-001	1.00062E-003	4	..........a	-327.66
	216	43.4	7.44926E-001	9.89739E-010	0.00000E+000	7.45000E-001	1.00472E-003	4	..........a	-327.66
	219	44	7.74979E-001	1.06306E-009	0.00000E+000	7.75000E-001	9.96822E-004	4	..........a	-327.66
	221	44.4	7.94891E-001	1.11935E-009	0.00000E+000	7.95000E-001	1.01702E-003	4	..........a	-327.66
CURVE2	TABLE
	Pt	T	Vf	Im	Vu	Sig	Ach	IERange	Over	Temp
	#	s	V vs. Ref.	A	V	V	V	#	bits	deg C
	222	44.6	7.89901E-001	8.72591E-010	0.00000E+000	7.90000E-001	1.01762E-003	4	..........a	-327.66
	225	45.2	7.59902E-001	3.88593E-010	0.00000E+000	7.60000E-001	9.97022E-004	4	..........a	-327.66
	228	45.8	7.29996E-001	2.01681E-010	0.00000E+000	7.30000E-001	1.01182E-003	4	..........a	-327.66
	231	46.4	6.99996E-001	1.00671E-010	0.00000E+000	7.00000E-001	1.00332E-003	4	..........a	-327.66
	234	47	6.69911E-001	3.93973E-011	0.00000E+000	6.70000E-001	1.02622E-003	4	..........a	-327.66
	237	47.6	6.39866E-001	-3.23532E-012	0.00000E+000	6.40000E-001	1.03212E-003	4	..........a	-327.66
	240	48.2	6.09951E-001	-3.89387E-011	0.00000E+000	6.10000E-001	1.01332E-003	4	..........a	-327.66
	243	48.8	5.80003E-001	-6.53637E-011	0.00000E+000	5.80000E-001	9.95722E-004	4	..........a	-327.66
	246	49.4	5.49953E-001	-8.52825E-011	0.00000E+000	5.50000E-001	1.01672E-003	4	..........a	-327.66
	249	50	5.19946E-001	-1.02127E-010	0.00000E+000	5.20000E-001	1.00442E-003	4	..........a	-327.66
	252	50.6	4.89938E-001	-1.14269E-010	0.00000E+000	4.90000E-001	9.95622E-004	4	..........a	-327.66
	255	51.2	4.60014E-001	-1.22042E-010	0.00000E+000	4.60000E-001	1.01092E-003	4	..........a	-327.66
	258	51.8	4.29963E-001	-1.28719E-010	0.00000E+000	4.30000E-001	1.01592E-003	4	..........a	-327.66
	261	52.4	3.99927E-001	-1.32323E-010	0.00000E+000	4.00000E-001	1.01402E-003	4	..........a	-327.66
	264	53	3.69987E-001	-1.32900E-010	0.00000E+000	3.70000E-001	1.01532E-003	4	..........a	-327.66
	267	53.6	3.40033E-001	-1.34617E-010	0.00000E+000	3.40000E-001	1.01532E-003	4	..........a	-327.66
	270	54.2	3.09983E-001	-1.35520E-010	0.00000E+000	3.10000E-001	1.00352E-003	4	..........a	-327.66
	273	54.8	2.79935E-001	-1.35039E-010	0.00000E+000	2.80000E-001	1.03852E-003	4	..........a	-327.66
	276	55.4	2.49976E-001	-1.36868E-010	0.00000E+000	2.50000E-001	1.02842E-003	4	..........a	-327.66
	279	56	2.19986E-001	-1.39019E-010	0.00000E+000	2.20000E-001	1.02902E-003	4	..........a	-327.66
	282	56.6	1.90012E-001	-1.39786E-010	0.00000E+000	1.90000E-001	1.00652E-003	4	..........a	-327.66
	285	57.2	1.59934E-001	-1.41913E-010	0.00000E+000	1.60000E-001	9.97122E-004	4	..........a	-327.66
	288	57.8	1.30034E-001	-1.41965E-010	0.00000E+000	1.30000E-001	1.02342E-003	4	..........a	-327.66
	291	58.4	9.99857E-002	-1.42913E-010	0.00000E+000	1.00000E-001	1.02792E-003	4	..........a	-327.66
	294	59	6.99668E-002	-1.44329E-010	0.00000E+000	7.00000E-002	1.03232E-003	4	..........a	-327.66
	297	59.6	4.00025E-002	-1.47446E-010	0.00000E+000	4.00000E-002	1.00142E-003	4	..........a	-327.66
	300	60.2	1.00605E-002	-1.50784E-010	0.00000E+000	1.00000E-002	1.00212E-003	4	..........a	-327.66
	303	60.8	-1.99534E-002	-1.57445E-010	0.00000E+000	-2.00000E-002	1.00762E-003	4	..........a	-327.66
	306	61.4	-4.99973E-002	-1.65214E-010	0.00000E+000	-5.00000E-002	1.02522E-003	4	..........a	-327.66
	309	62	-7.99941E-002	-1.74038E-010	0.00000E+000	-8.00000E-002	1.01242E-003	4	..........a	-327.66
	312	62.6	-1.09922E-001	-1.85486E-010	0.00000E+000	-1.10000E-001	1.02752E-003	4	..........a	-327.66
	315	63.2	-1.39999E-001	-1.99490E-010	0.00000E+000	-1.40000E-001	1.05022E-003	4	..........a	-327.66
	318	63.8	-1.69982E-001	-2.16434E-010	0.00000E+000	-1.70000E-001	1.01372E-003	4	..........a	-327.66
	321	64.4	-1.99956E-001	-2.35614E-010	0.00000E+000	-2.00000E-001	1.02382E-003	4	..........a	-327.66
	324	65	-2.29962E-001	-2.60436E-010	0.00000E+000	-2.30000E-001	1.02172E-003	4	..........a	-327.66
	327	65.6	-2.59915E-001	-2.91361E-010	0.00000E+000	-2.60000E-001	1.00052E-003	4	..........a	-327.66
	330	66.2	-2.89926E-001	-3.20444E-010	0.00000E+000	-2.90000E-001	1.00592E-003	4	..........a	-327.66
	333	66.8	-3.19822E-001	-3.50919E-010	0.00000E+000	-3.20000E-001	1.01782E-003	4	..........a	-327.66
	336	67.4	-3.49913E-001	-3.95000E-010	0.00000E+000	-3.50000E-001	1.01882E-003	4	..........a	-327.66
	339	68	-3.79905E-001	-4.41818E-010	0.00000E+000	-3.80000E-001	1.01552E-003	4	..........a	-327.66
	342	68.6	-4.09972E-001	-4.83473E-010	0.00000E+000	-4.10000E-001	1.03242E-003	4	..........a	-327.66
	345	69.2	-4.39959E-001	-5.37631E-010	0.00000E+000	-4.40000E-001	1.03562E-003	4	..........a	-327.66
	348	69.8	-4.69891E-001	-5.88116E-010	0.00000E+000	-4.70000E-001	9.82422E-004	4	..........a	-327.66
	351	70.4	-4.99882E-001	-6.40446E-010	0.00000E+000	-5.00000E-001	1.03862E-003	4	..........a	-327.66
	354	71	-5.29915E-001	-6.95564E-010	0.00000E+000	-5.30000E-001	1.00562E-003	4	..........a	-327.66
	357	71.6	-5.59939E-001	-7.54012E-010	0.00000E+000	-5.60000E-001	9.93522E-004	4	..........a	-327.66
	360	72.2	-5.89877E-001	-8.22750E-010	0.00000E+000	-5.90000E-001	1.02592E-003	4	..........a	-327.66
[...]
	977	195.6	-3.99670E-002	1.87234E-010	0.00000E+000	-4.00000E-002	1.03992E-003	4	..........a	-327.66
	980	196.2	-1.00508E-002	1.89477E-010	0.00000E+000	-1.00000E-002	1.00512E-003	4	..........a	-327.66
	983	196.8	2.00239E-002	1.93875E-010	0.00000E+000	2.00000E-002	1.01962E-003	4	..........a	-327.66
	986	197.4	5.00661E-002	1.97714E-010	0.00000E+000	5.00000E-002	1.01382E-003	4	..........a	-327.66
	989	198	8.00339E-002	2.01660E-010	0.00000E+000	8.00000E-002	1.00402E-003	4	..........a	-327.66
	992	198.6	1.10046E-001	2.08365E-010	0.00000E+000	1.10000E-001	1.03442E-003	4	..........a	-327.66
	995	199.2	1.40099E-001	2.15766E-010	0.00000E+000	1.40000E-001	1.02992E-003	4	..........a	-327.66
	998	199.8	1.70078E-001	2.19689E-010	0.00000E+000	1.70000E-001	1.00562E-003	4	..........a	-327.66
	1001	200.4	1.99939E-001	2.29244E-010	0.00000E+000	2.00000E-001	1.02202E-003	4	..........a	-327.66
	1004	201	2.29916E-001	2.41131E-010	0.00000E+000	2.30000E-001	1.03012E-003	4	..........a	-327.66
	1007	201.6	2.59944E-001	2.49919E-010	0.00000E+000	2.60000E-001	1.02282E-003	4	..........a	-327.66
	1010	202.2	2.89970E-001	2.56420E-010	0.00000E+000	2.90000E-001	1.00312E-003	4	..........a	-327.66
	1013	202.8	3.19899E-001	2.63282E-010	0.00000E+000	3.20000E-001	1.03312E-003	4	..........a	-327.66
	1016	203.4	3.49916E-001	2.69836E-010	0.00000E+000	3.50000E-001	9.95622E-004	4	..........a	-327.66
	1019	204	3.79987E-001	2.75165E-010	0.00000E+000	3.80000E-001	1.03262E-003	4	..........a	-327.66
	1022	204.6	4.09945E-001	2.82117E-010	0.00000E+000	4.10000E-001	1.03862E-003	4	..........a	-327.66
	1025	205.2	4.39944E-001	2.89358E-010	0.00000E+000	4.40000E-001	1.00942E-003	4	..........a	-327.66
	1028	205.8	4.69939E-001	2.98311E-010	0.00000E+000	4.70000E-001	1.03722E-003	4	..........a	-327.66
	1031	206.4	5.00035E-001	3.09580E-010	0.00000E+000	5.00000E-001	1.02292E-003	4	..........a	-327.66
	1034	207	5.29991E-001	3.23828E-010	0.00000E+000	5.30000E-001	1.01382E-003	4	..........a	-327.66
	1037	207.6	5.59964E-001	3.42020E-010	0.00000E+000	5.60000E-001	1.02622E-003	4	..........a	-327.66
	1040	208.2	5.89920E-001	3.65651E-010	0.00000E+000	5.90000E-001	1.00592E-003	4	..........a	-327.66
	1043	208.8	6.20001E-001	3.97736E-010	0.00000E+000	6.20000E-001	1.02242E-003	4	..........a	-327.66
	1046	209.4	6.49925E-001	4.39326E-010	0.00000E+000	6.50000E-001	9.95022E-004	4	..........a	-327.66
	1049	210	6.79817E-001	4.93923E-010	0.00000E+000	6.80000E-001	1.03042E-003	4	..........a	-327.66
	1052	210.6	7.09912E-001	5.62983E-010	0.00000E+000	7.10000E-001	1.02272E-003	4	..........a	-327.66
	1055	211.2	7.39998E-001	6.48669E-010	0.00000E+000	7.40000E-001	1.03392E-003	4	..........a	-327.66
	1058	211.8	7.69932E-001	7.50107E-010	0.00000E+000	7.70000E-001	1.02472E-003	4	..........a	-327.66
	1061	212.4	7.99887E-001	8.75901E-010	0.00000E+000	8.00000E-001	1.00742E-003	4	..........a	-327.66
CURVE5	TABLE
	Pt	T	Vf	Im	Vu	Sig	Ach	IERange	Over	Temp
	#	s	V vs. Ref.	A	V	V	V	#	bits	deg C
	1062	212.6	7.89947E-001	5.86369E-010	0.00000E+000	7.90000E-001	1.03242E-003	4	..........a	-327.66
	1063	212.8	7.79964E-001	4.28717E-010	0.00000E+000	7.80000E-001	1.01212E-003	4	..........a	-327.66
	1064	213	7.69911E-001	3.26035E-010	0.00000E+000	7.70000E-001	9.99522E-004	4	..........a	-327.66
	1065	213.2	7.59883E-001	2.54047E-010	0.00000E+000	7.60000E-001	1.00942E-003	4	..........a	-327.66
	1066	213.4	7.49941E-001	2.01063E-010	0.00000E+000	7.50000E-001	1.03952E-003	4	..........a	-327.66
	1067	213.6	7.40018E-001	1.62196E-010	0.00000E+000	7.40000E-001	1.03882E-003	4	..........a	-327.66
	1068	213.8	7.29980E-001	1.28945E-010	0.00000E+000	7.30000E-001	1.01012E-003	4	..........a	-327.66
	1069	214	7.19921E-001	9.89116E-011	0.00000E+000	7.20000E-001	1.02442E-003	4	..........a	-327.66
	1070	214.2	7.09890E-001	7.96459E-011	0.00000E+000	7.10000E-001	1.01882E-003	4	..........a	-327.66
	1071	214.4	6.99980E-001	6.08751E-011	0.00000E+000	7.00000E-001	1.03082E-003	4	..........a	-327.66
	1072	214.6	6.89887E-001	4.56496E-011	0.00000E+000	6.90000E-001	9.97322E-004	4	..........a	-327.66
	1073	214.8	6.79761E-001	3.40031E-011	0.00000E+000	6.80000E-001	1.01552E-003	4	..........a	-327.66
	1074	215	6.69895E-001	2.07736E-011	0.00000E+000	6.70000E-001	1.02432E-003	4	..........a	-327.66
	1075	215.2	6.60004E-001	1.07082E-011	0.00000E+000	6.60000E-001	1.04092E-003	4	..........a	-327.66
	1076	215.4	6.49908E-001	1.48886E-012	0.00000E+000	6.50000E-001	1.02342E-003	4	..........a	-327.66
	1077	215.6	6.39862E-001	-4.45437E-012	0.00000E+000	6.40000E-001	1.00802E-003	4	..........a	-327.66
	1078	215.8	6.29896E-001	-1.32517E-011	0.00000E+000	6.30000E-001	1.00962E-003	4	..........a	-327.66
	1079	216	6.19997E-001	-2.06350E-011	0.00000E+000	6.20000E-001	1.04142E-003	4	..........a	-327.66
	1080	216.2	6.09981E-001	-2.78143E-011	0.00000E+000	6.10000E-001	1.02062E-003	4	..........a	-327.66
	1081	216.4	5.99958E-001	-3.46125E-011	0.00000E+000	6.00000E-001	1.01952E-003	4	..........a	-327.66
	1082	216.6	5.89945E-001	-3.86387E-011	0.00000E+000	5.90000E-001	1.00912E-003	4	..........a	-327.66
	1083	216.8	5.80017E-001	-4.23818E-011	0.00000E+000	5.80000E-001	1.02402E-003	4	..........a	-327.66
	1084	217	5.69939E-001	-4.67780E-011	0.00000E+000	5.70000E-001	1.03972E-003	4	..........a	-327.66
	1085	217.2	5.59970E-001	-5.11412E-011	0.00000E+000	5.60000E-001	1.01372E-003	4	..........a	-327.66
	1086	217.4	5.49953E-001	-5.56343E-011	0.00000E+000	5.50000E-001	1.02522E-003	4	..........a	-327.66
	1087	217.6	5.40011E-001	-5.95715E-011	0.00000E+000	5.40000E-001	1.02652E-003	4	..........a	-327.66
	1088	217.8	5.29940E-001	-6.23256E-011	0.00000E+000	5.30000E-001	1.02122E-003	4	..........a	-327.66
	1089	218	5.19928E-001	-6.69808E-011	0.00000E+000	5.20000E-001	1.03572E-003	4	..........a	-327.66
	1090	218.2	5.09937E-001	-6.97069E-011	0.00000E+000	5.10000E-001	1.01602E-003	4	..........a	-327.66
	1091	218.4	5.00045E-001	-7.20570E-011	0.00000E+000	5.00000E-001	1.01732E-003	4	..........a	-327.66
	1092	218.6	4.89947E-001	-7.53701E-011	0.00000E+000	4.90000E-001	9.97422E-004	4	..........a	-327.66
	1093	218.8	4.79874E-001	-7.80322E-011	0.00000E+000	4.80000E-001	1.03602E-003	4	..........a	-327.66
	1094	219	4.69938E-001	-8.08353E-011	0.00000E+000	4.70000E-001	1.00982E-003	4	..........a	-327.66
	1095	219.2	4.60007E-001	-8.36354E-011	0.00000E+000	4.60000E-001	1.01922E-003	4	..........a	-327.66
	1096	219.4	4.50011E-001	-8.63515E-011	0.00000E+000	4.50000E-001	1.03822E-003	4	..........a	-327.66
	1097	219.6	4.39946E-001	-8.98787E-011	0.00000E+000	4.40000E-001	1.03702E-003	4	..........a	-327.66
	1098	219.8	4.29954E-001	-9.06977E-011	0.00000E+000	4.30000E-001	1.03752E-003	4	..........a	-327.66
	1099	220	4.20021E-001	-9.24797E-011	0.00000E+000	4.20000E-001	1.01462E-003	4	..........a	-327.66
	1100	220.2	4.09922E-001	-9.45678E-011	0.00000E+000	4.10000E-001	1.01942E-003	4	..........a	-327.66
	1101	220.4	4.00012E-001	-9.83730E-011	0.00000E+000	4.00000E-001	1.03622E-003	4	..........a	-327.66
	1102	220.6	3.89990E-001	-9.95160E-011	0.00000E+000	3.90000E-001	1.01952E-003	4	..........a	-327.66
	1103	220.8	3.80013E-001	-1.00708E-010	0.00000E+000	3.80000E-001	1.01832E-003	4	..........a	-327.66
	1104	221	3.69994E-001	-1.02768E-010	0.00000E+000	3.70000E-001	1.01722E-003	4	..........a	-327.66
	1105	221.2	3.59995E-001	-1.04885E-010	0.00000E+000	3.60000E-001	1.02542E-003	4	..........a	-327.66
	1106	221.4	3.49961E-001	-1.06266E-010	0.00000E+000	3.50000E-001	1.04372E-003	4	..........a	-327.66
	1107	221.6	3.40036E-001	-1.08383E-010	0.00000E+000	3.40000E-001	1.03762E-003	4	..........a	-327.66
	1108	221.8	3.29975E-001	-1.10665E-010	0.00000E+000	3.30000E-001	1.02432E-003	4	..........a	-327.66
	1109	222	3.19984E-001	-1.13395E-010	0.00000E+000	3.20000E-001	1.01732E-003	4	..........a	-327.66
	1110	222.2	3.09969E-001	-1.15235E-010	0.00000E+000	3.10000E-001	1.05292E-003	4	..........a	-327.66
	1111	222.4	3.00018E-001	-1.17066E-010	0.00000E+000	3.00000E-001	1.04632E-003	4	..........a	-327.66
	1112	222.6	2.89998E-001	-1.18926E-010	0.00000E+000	2.90000E-001	1.01672E-003	4	..........a	-327.66
	1113	222.8	2.79969E-001	-1.20848E-010	0.00000E+000	2.80000E-001	1.01752E-003	4	..........a	-327.66
	1114	223	2.69981E-001	-1.23361E-010	0.00000E+000	2.70000E-001	1.01922E-003	4	..........a	-327.66
	1115	223.2	2.60014E-001	-1.24099E-010	0.00000E+000	2.60000E-001	1.04882E-003	4	..........a	-327.66
	1116	223.4	2.50001E-001	-1.26254E-010	0.00000E+000	2.50000E-001	1.00722E-003	4	..........a	-327.66
	1117	223.6	2.39936E-001	-1.28936E-010	0.00000E+000	2.40000E-001	1.03922E-003	4	..........a	-327.66
	1118	223.8	2.29935E-001	-1.27971E-010	0.00000E+000	2.30000E-001	1.02182E-003	4	..........a	-327.66