File: data/raw/batch_data/20240509_ZZM_GM0016_HL03_E10_CV50.DTA
EXPLAIN
TAG	CV
TITLE	LABEL	Cyclic Voltammetry	Test &Identifier
DATE	LABEL	5/9/2024	Date
TIME	LABEL	14:30:38	Time
NOTES	NOTES	1	&Notes...

PSTAT	PSTAT	REF600P-43058	Potentiostat
VINIT	POTEN	0.00000E+000	T	Initial &E (V)
VLIMIT1	POTEN	8.00000E-001	F	Scan Limit &1 (V)
VLIMIT2	POTEN	-6.00000E-001	F	Scan Limit &2 (V)
VFINAL	POTEN	0.00000E+000	T	Final &E (V)
SCANRATE	QUANT	4.99999E+001	&Scan Rate (mV/s)
STEPSIZE	QUANT	1.00000E+001	St&ep Size (mV)
CYCLES	IQUANT	4	C&ycles (#)
IMODE	SELECTOR	0	I/E Range &Mode
IRANGE	QUANT	1.00000E-005	&Max Current (mA)
AREA	QUANT	1.00000E+000	Electrode &Area (cm^2)
ELECTRODETYPE	SELECTOR	0	Electrode Type
STRIPPING	TOGGLE	F	Used for Stripping
POLARITY	TOGGLE	F	Signal Polarity
CONDIT	TWOPARAM	F	1.50000E+001	0.00000E+000	Conditionin&g	Time(s)	E(V)
DELAY	TWOPARAM	T	1.00000E+001	0.00000E+000	Init. De&lay	Time(s)	Stab.(mV/s)
EQDELAY	QUANT	1.00000E+001	Equil. &Time (s)
IRCOMP	SELECTOR	0	IRCom&p
PFCOR	QUANT	5.00000E+001	PF Corr. (ohm)
SAMPLINGMODE	SELECTOR	1	Sampling &Mode
OCVCURVE	TABLE	39
	Pt	T	Vf	Vm	Ach	Over	Temp
	#	s	V vs. Ref.	V	V	bits	deg C
	0	0.258333	-2.21066E-001	-2.21066E-001	2.30326E-004	..........a	-327.66
	1	0.516667	-2.21071E-001	-2.21322E-001	2.38259E-004	..........a	-327.66
	2	0.775	-2.21101E-001	-2.21585E-001	2.32792E-004	..........a	-327.66
	3	1.03333	-2.21189E-001	-2.21840E-001	2.32992E-004	..........a	-327.66
	4	1.29167	-2.21348E-001	-2.22094E-001	2.26926E-004	..........a	-327.66
	5	1.55	-2.21565E-001	-2.22349E-001	2.40192E-004	..........a	-327.66
	6	1.80833	-2.21811E-001	-2.22597E-001	2.28326E-004	..........a	-327.66
	7	2.06667	-2.22068E-001	-2.22858E-001	2.23192E-004	..........a	-327.66
	8	2.325	-2.22325E-001	-2.23100E-001	2.24326E-004	..........a	-327.66
	9	2.58333	-2.22580E-001	-2.23356E-001	2.19592E-004	..........a	-327.66
	10	2.84167	-2.22833E-001	-2.23605E-001	2.32392E-004	..........a	-327.66
	11	3.1	-2.23084E-001	-2.23849E-001	2.32392E-004	..........a	-327.66
	12	3.35833	-2.23334E-001	-2.24095E-001	2.39126E-004	..........a	-327.66
	13	3.61667	-2.23583E-001	-2.24331E-001	2.27526E-004	..........a	-327.66
	14	3.875	-2.23829E-001	-2.24577E-001	2.24592E-004	..........a	-327.66
	15	4.13333	-2.24073E-001	-2.24814E-001	2.34726E-004	..........a	-327.66
	16	4.39167	-2.24315E-001	-2.25054E-001	2.31526E-004	..........a	-327.66
	17	4.65	-2.24556E-001	-2.25291E-001	2.35059E-004	..........a	-327.66
	18	4.90833	-2.24795E-001	-2.25531E-001	2.30392E-004	..........a	-327.66
	19	5.16667	-2.25035E-001	-2.25768E-001	2.22459E-004	..........a	-327.66
	20	5.425	-2.25273E-001	-2.25999E-001	2.35926E-004	..........a	-327.66
	21	5.68333	-2.25511E-001	-2.26235E-001	2.28592E-004	..........a	-327.66
	22	5.94167	-2.25747E-001	-2.26462E-001	2.35059E-004	..........a	-327.66
	23	6.2	-2.25981E-001	-2.26694E-001	2.28059E-004	..........a	-327.66
	24	6.45833	-2.26214E-001	-2.26924E-001	2.25726E-004	..........a	-327.66
	25	6.71667	-2.26445E-001	-2.27143E-001	2.25192E-004	..........a	-327.66
	26	6.975	-2.26675E-001	-2.27368E-001	2.27592E-004	..........a	-327.66
	27	7.23333	-2.26902E-001	-2.27592E-001	2.26792E-004	..........a	-327.66
	28	7.49167	-2.27127E-001	-2.27795E-001	2.27459E-004	..........a	-327.66
	29	7.75	-2.27349E-001	-2.28022E-001	2.40659E-004	..........a	-327.66
	30	8.00833	-2.27568E-001	-2.28250E-001	2.24126E-004	..........a	-327.66
	31	8.26667	-2.27787E-001	-2.28479E-001	2.22259E-004	..........a	-327.66
	32	8.525	-2.28009E-001	-2.28695E-001	2.33526E-004	..........a	-327.66
	33	8.78333	-2.28232E-001	-2.28915E-001	2.44659E-004	..........a	-327.66
	34	9.04167	-2.28456E-001	-2.29138E-001	2.37126E-004	..........a	-327.66
	35	9.3	-2.28678E-001	-2.29361E-001	2.20059E-004	..........a	-327.66
	36	9.5583	-2.28900E-001	-2.29580E-001	2.17392E-004	..........a	-327.66
	37	9.8167	-2.29121E-001	-2.29796E-001	2.33126E-004	..........a	-327.66
	38	10.075	-2.29342E-001	-2.30012E-001	2.30792E-004	..........a	-327.66
EOC	QUANT	-0.2293416	Open Circuit (V)
PSTATMODEL	IQUANT	7	Pstat Model
PSTATSECTION	LABEL	REF600P-43058	Pstat Section
PSTATSERIALNO	LABEL	43058	Pstat Serial Number
CTRLMODE	IQUANT	1	Control Mode
ELECTROMETER	IQUANT	0	RE=0 or CS=1
IESTAB	IQUANT	2	I/E Stability
CASPEED	IQUANT	4	Control Amp Speed
CONVENTION	IQUANT	1	Current Convention
ICHRANGE	IQUANT	2	Ich Range
ICHRANGEMODE	TOGGLE	F	Ich Auto Range
ICHOFFSETENABLE	TOGGLE	F	Ich Offset Enable
ICHOFFSET	QUANT	0	Ich Offset (V)
ICHFILTER	IQUANT	2	Ich Filter
VCHRANGE	IQUANT	2	Vch Range
VCHRANGEMODE	TOGGLE	F	Vch Auto Range
VCHOFFSETENABLE	TOGGLE	F	Vch Offset Enable
VCHOFFSET	QUANT	0	Vch Offset (V)
VCHFILTER	IQUANT	2	Vch Filter
ACHRANGE	IQUANT	2	Ach Range
ACHOFFSETENABLE	TOGGLE	F	Ach Offset Enable
ACHOFFSET	QUANT	0	Ach Offset (V)
ACHFILTER	IQUANT	1	Ach Filter
IERANGELOWERLIMIT	IQUANT	1	I/E Range Lower Limit
IERANGEMODE	TOGGLE	T	I/E AutoRange
IERANGE	IQUANT	4	I/E Range
POSFEEDENABLE	TOGGLE	F	Positive Feedback IR Comp
POSFEEDRESISTANCE	QUANT	0	Positive Feedback Resistance (ohm)
ACHSELECT	IQUANT	4	Ach Select
SENSECABLEID	IQUANT	7	Sense Cable ID
PWRCABLEID	IQUANT	7	Power Cable ID
DCCALDATE	LABEL	3/22/2024	DC Calibration Date
ACCALDATE	LABEL	3/22/2024	AC Calibration Date
THERMOSELECT	IQUANT	1	Thermo Select
FRAMEWORKVERSION	LABEL	7.8.4	Framework Version
INSTRUMENTVERSION	LABEL	4.42	Instrument Version
CURVE1	TABLE
	Pt	T	Vf	Im	Vu	Sig	Ach	IERange	Over	Temp
	#	s	V vs. Ref.	A	V	V	V	#	bits	deg C
	0	0.2	-2.29278E-001	2.55548E-009	0.00000E+000	-2.29350E-001	9.90492E-004	5	..........a	-327.66
	3	0.8	-1.99299E-001	1.39282E-008	0.00000E+000	-1.99350E-001	9.93692E-004	5	..........a	-327.66
	6	1.4	-1.69308E-001	2.14809E-008	0.00000E+000	-1.69350E-001	9.99692E-004	5	..........a	-327.66
	9	2	-1.39317E-001	2.82955E-008	0.00000E+000	-1.39350E-001	9.76392E-004	5	..........a	-327.66
	12	2.6	-1.09230E-001	3.48666E-008	0.00000E+000	-1.09350E-001	9.91192E-004	5	..........a	-327.66
	15	3.2	-7.93311E-002	4.13260E-008	0.00000E+000	-7.93500E-002	9.82992E-004	5	..........a	-327.66
	18	3.8	-4.93320E-002	4.79359E-008	0.00000E+000	-4.93500E-002	9.93992E-004	5	..........a	-327.66
	21	4.4	-1.93430E-002	5.48190E-008	0.00000E+000	-1.93500E-002	9.90392E-004	5	..........a	-327.66
	24	5	1.07421E-002	6.23045E-008	0.00000E+000	1.06500E-002	9.78092E-004	5	..........a	-327.66
	27	5.6	4.06837E-002	7.07860E-008	0.00000E+000	4.06500E-002	9.95692E-004	5	..........a	-327.66
	30	6.2	7.06431E-002	8.06875E-008	0.00000E+000	7.06500E-002	1.01199E-003	5	..........a	-327.66
	33	6.8	1.00653E-001	9.24988E-008	0.00000E+000	1.00650E-001	9.84992E-004	5	..........a	-327.66
	36	7.4	1.30757E-001	1.06850E-007	0.00000E+000	1.30650E-001	1.01019E-003	5	..........a	-327.66
	39	8	1.60667E-001	1.24065E-007	0.00000E+000	1.60650E-001	9.89992E-004	5	..........a	-327.66
	42	8.6	1.90656E-001	1.44960E-007	0.00000E+000	1.90650E-001	9.69292E-004	5	..........a	-327.66
	45	9.2	2.20622E-001	1.64018E-007	0.00000E+000	2.20650E-001	9.88992E-004	5	..........a	-327.66
	48	9.8	2.50722E-001	1.78984E-007	0.00000E+000	2.50650E-001	9.83992E-004	5	..........a	-327.66
	51	10.4	2.80583E-001	1.91652E-007	0.00000E+000	2.80650E-001	9.87092E-004	5	..........a	-327.66
	54	11	3.10564E-001	2.04624E-007	0.00000E+000	3.10650E-001	9.89792E-004	5	..........a	-327.66
	57	11.6	3.40596E-001	2.21297E-007	0.00000E+000	3.40650E-001	9.88592E-004	5	..........a	-327.66
	60	12.2	3.70605E-001	2.41274E-007	0.00000E+000	3.70650E-001	9.65492E-004	5	..........a	-327.66
	63	12.8	4.00566E-001	2.63344E-007	0.00000E+000	4.00650E-001	9.87692E-004	5	..........a	-327.66
	66	13.4	4.30485E-001	2.86696E-007	0.00000E+000	4.30650E-001	9.86292E-004	5	..........a	-327.66
	69	14	4.60472E-001	3.09817E-007	0.00000E+000	4.60650E-001	9.95492E-004	5	..........a	-327.66
	72	14.6	4.90553E-001	3.30698E-007	0.00000E+000	4.90650E-001	9.78092E-004	5	..........a	-327.66
	75	15.2	5.20491E-001	3.49022E-007	0.00000E+000	5.20650E-001	9.92592E-004	5	..........a	-327.66
	78	15.8	5.50510E-001	3.66479E-007	0.00000E+000	5.50650E-001	9.90192E-004	5	..........a	-327.66
	81	16.4	5.80420E-001	3.83418E-007	0.00000E+000	5.80650E-001	1.00409E-003	5	..........a	-327.66
	84	17	6.10523E-001	4.00391E-007	0.00000E+000	6.10650E-001	9.72892E-004	5	..........a	-327.66
	87	17.6	6.40339E-001	4.15150E-007	0.00000E+000	6.40650E-001	1.00959E-003	5	..........a	-327.66
	90	18.2	6.70360E-001	4.30887E-007	0.00000E+000	6.70650E-001	1.00239E-003	5	..........a	-327.66
	93	18.8	7.00433E-001	4.47275E-007	0.00000E+000	7.00650E-001	9.94792E-004	5	..........a	-327.66
	96	19.4	7.30462E-001	4.65821E-007	0.00000E+000	7.30650E-001	9.95992E-004	5	..........a	-327.66
	99	20	7.60386E-001	4.87809E-007	0.00000E+000	7.60650E-001	9.90292E-004	5	..........a	-327.66
	102	20.6	7.90322E-001	5.14978E-007	0.00000E+000	7.90650E-001	9.93392E-004	5	..........a	-327.66
	105	21.2	7.80465E-001	3.89205E-007	0.00000E+000	7.80650E-001	1.00019E-003	5	..........a	-327.66
	108	21.8	7.50488E-001	2.85575E-007	0.00000E+000	7.50650E-001	9.92692E-004	5	..........a	-327.66
	111	22.4	7.20516E-001	2.25017E-007	0.00000E+000	7.20650E-001	9.92092E-004	5	..........a	-327.66
	114	23	6.90593E-001	1.84189E-007	0.00000E+000	6.90650E-001	9.76692E-004	5	..........a	-327.66
	117	23.6	6.60556E-001	1.54469E-007	0.00000E+000	6.60650E-001	9.81992E-004	5	..........a	-327.66
	120	24.2	6.30543E-001	1.31522E-007	0.00000E+000	6.30650E-001	9.70592E-004	5	..........a	-327.66
	123	24.8	6.00597E-001	1.13059E-007	0.00000E+000	6.00650E-001	9.62092E-004	5	..........a	-327.66
	126	25.4	5.70673E-001	9.78668E-008	0.00000E+000	5.70650E-001	9.80592E-004	5	..........a	-327.66
	129	26	5.40595E-001	8.47890E-008	0.00000E+000	5.40650E-001	9.90292E-004	5	..........a	-327.66
	132	26.6	5.10585E-001	7.31521E-008	0.00000E+000	5.10650E-001	1.00169E-003	5	..........a	-327.66
	135	27.2	4.80621E-001	6.26029E-008	0.00000E+000	4.80650E-001	9.78092E-004	5	..........a	-327.66
	138	27.8	4.50667E-001	5.22591E-008	0.00000E+000	4.50650E-001	9.72892E-004	5	..........a	-327.66
	141	28.4	4.20631E-001	4.18350E-008	0.00000E+000	4.20650E-001	9.79892E-004	5	..........a	-327.66
	144	29	3.90653E-001	3.16923E-008	0.00000E+000	3.90650E-001	9.87792E-004	5	..........a	-327.66
	147	29.6	3.60660E-001	2.18041E-008	0.00000E+000	3.60650E-001	9.75792E-004	5	..........a	-327.66
	150	30.2	3.30734E-001	1.24628E-008	0.00000E+000	3.30650E-001	9.97192E-004	5	..........a	-327.66
	153	30.8	3.00644E-001	3.79993E-009	0.00000E+000	3.00650E-001	9.93392E-004	5	..........a	-327.66
	156	31.4	2.70713E-001	-4.21738E-009	0.00000E+000	2.70650E-001	9.70792E-004	5	..........a	-327.66
	159	32	2.40691E-001	-1.15820E-008	0.00000E+000	2.40650E-001	9.84192E-004	5	..........a	-327.66
	162	32.6	2.10762E-001	-1.86206E-008	0.00000E+000	2.10650E-001	9.89792E-004	5	..........a	-327.66
	165	33.2	1.80713E-001	-2.60275E-008	0.00000E+000	1.80650E-001	9.92292E-004	5	..........a	-327.66
	168	33.8	1.50726E-001	-3.35704E-008	0.00000E+000	1.50650E-001	9.97892E-004	5	..........a	-327.66
	171	34.4	1.20771E-001	-4.09954E-008	0.00000E+000	1.20650E-001	9.87592E-004	5	..........a	-327.66
	174	35	9.08158E-002	-4.78944E-008	0.00000E+000	9.06500E-002	1.00009E-003	5	..........a	-327.66
	177	35.6	6.07458E-002	-5.34061E-008	0.00000E+000	6.06500E-002	9.88392E-004	5	..........a	-327.66
	180	36.2	3.07137E-002	-5.75261E-008	0.00000E+000	3.06500E-002	9.88492E-004	5	..........a	-327.66
	183	36.8	7.27792E-004	-6.42588E-008	0.00000E+000	6.50004E-004	9.73792E-004	5	..........a	-327.66
	186	37.4	-2.92100E-002	-6.77174E-008	0.00000E+000	-2.93500E-002	9.77992E-004	5	..........a	-327.66
	189	38	-5.92779E-002	-6.89354E-008	0.00000E+000	-5.93500E-002	9.82492E-004	5	..........a	-327.66
	192	38.6	-8.92353E-002	-7.22274E-008	0.00000E+000	-8.93500E-002	1.00249E-003	5	..........a	-327.66
	195	39.2	-1.19271E-001	-7.61438E-008	0.00000E+000	-1.19350E-001	9.94592E-004	5	..........a	-327.66
	198	39.8	-1.49215E-001	-8.13084E-008	0.00000E+000	-1.49350E-001	9.87792E-004	5	..........a	-327.66
	201	40.4	-1.79280E-001	-8.75139E-008	0.00000E+000	-1.79350E-001	9.82592E-004	5	..........a	-327.66
	204	41	-2.09222E-001	-9.44073E-008	0.00000E+000	-2.09350E-001	9.79992E-004	5	..........a	-327.66
	207	41.6	-2.39210E-001	-1.01643E-007	0.00000E+000	-2.39350E-001	9.66592E-004	5	..........a	-327.66
	210	42.2	-2.69181E-001	-1.08761E-007	0.00000E+000	-2.69350E-001	9.86192E-004	5	..........a	-327.66
	213	42.8	-2.99209E-001	-1.15670E-007	0.00000E+000	-2.99350E-001	9.90992E-004	5	..........a	-327.66
	216	43.4	-3.29214E-001	-1.22338E-007	0.00000E+000	-3.29350E-001	9.70592E-004	5	..........a	-327.66
	219	44	-3.59190E-001	-1.28587E-007	0.00000E+000	-3.59350E-001	9.68592E-004	5	..........a	-327.66
	222	44.6	-3.89184E-001	-1.35368E-007	0.00000E+000	-3.89350E-001	9.79992E-004	5	..........a	-327.66
	225	45.2	-4.19184E-001	-1.41380E-007	0.00000E+000	-4.19350E-001	9.81592E-004	5	..........a	-327.66
	228	45.8	-4.49138E-001	-1.47253E-007	0.00000E+000	-4.49350E-001	9.65992E-004	5	..........a	-327.66
	231	46.4	-4.79103E-001	-1.53139E-007	0.00000E+000	-4.79350E-001	9.70092E-004	5	..........a	-327.66
	234	47	-5.09144E-001	-1.59375E-007	0.00000E+000	-5.09350E-001	9.83692E-004	5	..........a	-327.66
	237	47.6	-5.39181E-001	-1.65566E-007	0.00000E+000	-5.39350E-001	9.79192E-004	5	..........a	-327.66
	240	48.2	-5.69166E-001	-1.73490E-007	0.00000E+000	-5.69350E-001	9.77292E-004	5	..........a	-327.66
	243	48.8	-5.99113E-001	-1.80895E-007	0.00000E+000	-5.99350E-001	9.73492E-004	5	..........a	-327.66
CURVE2	TABLE
	Pt	T	Vf	Im	Vu	Sig	Ach	IERange	Over	Temp
	#	s	V vs. Ref.	A	V	V	V	#	bits	deg C
	244	49	-5.89809E-001	-1.52911E-007	0.00000E+000	-5.90000E-001	9.64892E-004	5	..........a	-327.66
	247	49.6	-5.59857E-001	-1.07595E-007	0.00000E+000	-5.60000E-001	9.71992E-004	5	..........a	-327.66
	250	50.2	-5.29836E-001	-8.25067E-008	0.00000E+000	-5.30000E-001	9.62192E-004	5	..........a	-327.66
	253	50.8	-4.99820E-001	-6.48906E-008	0.00000E+000	-5.00000E-001	9.64892E-004	5	..........a	-327.66
	256	51.4	-4.69836E-001	-5.07979E-008	0.00000E+000	-4.70000E-001	9.82492E-004	5	..........a	-327.66
	259	52	-4.39861E-001	-3.88920E-008	0.00000E+000	-4.40000E-001	9.81692E-004	5	..........a	-327.66
	262	52.6	-4.09865E-001	-2.85284E-008	0.00000E+000	-4.10000E-001	9.97592E-004	5	..........a	-327.66
	265	53.2	-3.79844E-001	-1.93264E-008	0.00000E+000	-3.80000E-001	9.81992E-004	5	..........a	-327.66
	268	53.8	-3.49874E-001	-1.08210E-008	0.00000E+000	-3.50000E-001	9.69392E-004	5	..........a	-327.66
	271	54.4	-3.19881E-001	-2.72824E-009	0.00000E+000	-3.20000E-001	9.82992E-004	5	..........a	-327.66
	274	55	-2.89914E-001	4.98584E-009	0.00000E+000	-2.90000E-001	9.87692E-004	5	..........a	-327.66
	277	55.6	-2.59831E-001	1.23894E-008	0.00000E+000	-2.60000E-001	9.73392E-004	5	..........a	-327.66
	280	56.2	-2.29947E-001	1.95548E-008	0.00000E+000	-2.30000E-001	9.87292E-004	5	..........a	-327.66
	283	56.8	-1.99966E-001	2.64565E-008	0.00000E+000	-2.00000E-001	9.84592E-004	5	..........a	-327.66
	286	57.4	-1.69926E-001	3.32867E-008	0.00000E+000	-1.70000E-001	9.75092E-004	5	..........a	-327.66
	289	58	-1.39966E-001	4.00033E-008	0.00000E+000	-1.40000E-001	9.68692E-004	5	..........a	-327.66
	292	58.6	-1.09996E-001	4.64935E-008	0.00000E+000	-1.10000E-001	9.83992E-004	5	..........a	-327.66
	295	59.2	-8.00044E-002	5.34992E-008	0.00000E+000	-8.00000E-002	9.91392E-004	5	..........a	-327.66
	298	59.8	-4.99461E-002	6.04178E-008	0.00000E+000	-5.00000E-002	9.72992E-004	5	..........a	-327.66
	301	60.4	-1.99538E-002	6.75329E-008	0.00000E+000	-2.00000E-002	9.95592E-004	5	..........a	-327.66
	304	61	1.00350E-002	7.49704E-008	0.00000E+000	1.00000E-002	9.89992E-004	5	..........a	-327.66
	307	61.6	3.99723E-002	8.30172E-008	0.00000E+000	4.00000E-002	9.90792E-004	5	..........a	-327.66
	310	62.2	6.99853E-002	9.18996E-008	0.00000E+000	7.00000E-002	9.96392E-004	5	..........a	-327.66
	313	62.8	1.00035E-001	1.03618E-007	0.00000E+000	1.00000E-001	9.58392E-004	5	..........a	-327.66
	316	63.4	1.30001E-001	1.12934E-007	0.00000E+000	1.30000E-001	9.82192E-004	5	..........a	-327.66
	319	64	1.59969E-001	1.24763E-007	0.00000E+000	1.60000E-001	1.00629E-003	5	..........a	-327.66
	322	64.6	1.90038E-001	1.37264E-007	0.00000E+000	1.90000E-001	9.77092E-004	5	..........a	-327.66
	325	65.2	2.19961E-001	1.47706E-007	0.00000E+000	2.20000E-001	9.59892E-004	5	..........a	-327.66
	328	65.8	2.49957E-001	1.53091E-007	0.00000E+000	2.50000E-001	9.70392E-004	5	..........a	-327.66
	331	66.4	2.79921E-001	1.58484E-007	0.00000E+000	2.80000E-001	9.79192E-004	5	..........a	-327.66
	334	67	3.09970E-001	1.65721E-007	0.00000E+000	3.10000E-001	9.88092E-004	5	..........a	-327.66
	337	67.6	3.39962E-001	1.74984E-007	0.00000E+000	3.40000E-001	9.63792E-004	5	..........a	-327.66
	340	68.2	3.69934E-001	1.85306E-007	0.00000E+000	3.70000E-001	9.80592E-004	5	..........a	-327.66
	343	68.8	3.99924E-001	1.96200E-007	0.00000E+000	4.00000E-001	9.55592E-004	5	..........a	-327.66
	346	69.4	4.29944E-001	2.07379E-007	0.00000E+000	4.30000E-001	9.96392E-004	5	..........a	-327.66
	349	70	4.59880E-001	2.19068E-007	0.00000E+000	4.60000E-001	9.68692E-004	5	..........a	-327.66
	352	70.6	4.89880E-001	2.30996E-007	0.00000E+000	4.90000E-001	9.84292E-004	5	..........a	-327.66
	355	71.2	5.19865E-001	2.43488E-007	0.00000E+000	5.20000E-001	9.66492E-004	5	..........a	-327.66
	358	71.8	5.49914E-001	2.57108E-007	0.00000E+000	5.50000E-001	9.87792E-004	5	..........a	-327.66
	361	72.4	5.79862E-001	2.72586E-007	0.00000E+000	5.80000E-001	9.72592E-004	5	..........a	-327.66
[...]
	942	188.6	7.89875E-001	4.10750E-007	0.00000E+000	7.90000E-001	9.75792E-004	5	..........a	-327.66
	945	189.2	7.79807E-001	3.17055E-007	0.00000E+000	7.80000E-001	9.57092E-004	5	..........a	-327.66
	948	189.8	7.49920E-001	2.34744E-007	0.00000E+000	7.50000E-001	9.71292E-004	5	..........a	-327.66
	951	190.4	7.19868E-001	1.88746E-007	0.00000E+000	7.20000E-001	9.98192E-004	5	..........a	-327.66
	954	191	6.89904E-001	1.56881E-007	0.00000E+000	6.90000E-001	9.73792E-004	5	..........a	-327.66
	957	191.6	6.59905E-001	1.32436E-007	0.00000E+000	6.60000E-001	9.66592E-004	5	..........a	-327.66
	960	192.2	6.30018E-001	1.12752E-007	0.00000E+000	6.30000E-001	9.69892E-004	5	..........a	-327.66
	963	192.8	5.99952E-001	9.70769E-008	0.00000E+000	6.00000E-001	9.84992E-004	5	..........a	-327.66
	966	193.4	5.69931E-001	8.44347E-008	0.00000E+000	5.70000E-001	9.96092E-004	5	..........a	-327.66
	969	194	5.39976E-001	7.49371E-008	0.00000E+000	5.40000E-001	9.83192E-004	5	..........a	-327.66
	972	194.6	5.09982E-001	6.56002E-008	0.00000E+000	5.10000E-001	9.75492E-004	5	..........a	-327.66
	975	195.2	4.79936E-001	5.66638E-008	0.00000E+000	4.80000E-001	9.89492E-004	5	..........a	-327.66
	978	195.8	4.49822E-001	4.75409E-008	0.00000E+000	4.50000E-001	9.72692E-004	5	..........a	-327.66
	981	196.4	4.20015E-001	3.82989E-008	0.00000E+000	4.20000E-001	9.98692E-004	5	..........a	-327.66
	984	197	3.90034E-001	2.90186E-008	0.00000E+000	3.90000E-001	1.00349E-003	5	..........a	-327.66
	987	197.6	3.59991E-001	1.98591E-008	0.00000E+000	3.60000E-001	9.99292E-004	5	..........a	-327.66
	990	198.2	3.30014E-001	1.09239E-008	0.00000E+000	3.30000E-001	9.78992E-004	5	..........a	-327.66
	993	198.8	3.00079E-001	2.73635E-009	0.00000E+000	3.00000E-001	9.67992E-004	5	..........a	-327.66
	996	199.4	2.70120E-001	-4.49588E-009	0.00000E+000	2.70000E-001	9.70292E-004	5	..........a	-327.66
	999	200	2.40060E-001	-1.07194E-008	0.00000E+000	2.40000E-001	9.77992E-004	5	..........a	-327.66
	1002	200.6	2.10034E-001	-1.66162E-008	0.00000E+000	2.10000E-001	9.73192E-004	5	..........a	-327.66
	1005	201.2	1.80128E-001	-2.28425E-008	0.00000E+000	1.80000E-001	9.70192E-004	5	..........a	-327.66
	1008	201.8	1.50093E-001	-2.89612E-008	0.00000E+000	1.50000E-001	9.83792E-004	5	..........a	-327.66
	1011	202.4	1.20095E-001	-3.47881E-008	0.00000E+000	1.20000E-001	9.83992E-004	5	..........a	-327.66
	1014	203	9.01197E-002	-3.99636E-008	0.00000E+000	9.00000E-002	9.75092E-004	5	..........a	-327.66
	1017	203.6	6.01399E-002	-4.39766E-008	0.00000E+000	6.00000E-002	9.68692E-004	5	..........a	-327.66
	1020	204.2	3.00782E-002	-4.74346E-008	0.00000E+000	3.00000E-002	9.83192E-004	5	..........a	-327.66
	1023	204.8	8.32916E-005	-5.18411E-008	0.00000E+000	7.45058E-009	9.79992E-004	5	..........a	-327.66
	1026	205.4	-2.98923E-002	-5.46720E-008	0.00000E+000	-3.00000E-002	9.67992E-004	5	..........a	-327.66
	1029	206	-5.98377E-002	-5.84301E-008	0.00000E+000	-6.00000E-002	9.56892E-004	5	..........a	-327.66
	1032	206.6	-8.98713E-002	-6.29067E-008	0.00000E+000	-9.00000E-002	9.89192E-004	5	..........a	-327.66
	1035	207.2	-1.19902E-001	-6.78243E-008	0.00000E+000	-1.20000E-001	9.71092E-004	5	..........a	-327.66
	1038	207.8	-1.49929E-001	-7.34592E-008	0.00000E+000	-1.50000E-001	9.75292E-004	5	..........a	-327.66
	1041	208.4	-1.79839E-001	-8.00289E-008	0.00000E+000	-1.80000E-001	9.88192E-004	5	..........a	-327.66
	1044	209	-2.09861E-001	-8.74584E-008	0.00000E+000	-2.10000E-001	9.82392E-004	5	..........a	-327.66
	1047	209.6	-2.39849E-001	-9.47260E-008	0.00000E+000	-2.40000E-001	9.84292E-004	5	..........a	-327.66
	1050	210.2	-2.69833E-001	-1.01638E-007	0.00000E+000	-2.70000E-001	9.61592E-004	5	..........a	-327.66
	1053	210.8	-2.99810E-001	-1.08469E-007	0.00000E+000	-3.00000E-001	9.60392E-004	5	..........a	-327.66
	1056	211.4	-3.29855E-001	-1.15105E-007	0.00000E+000	-3.30000E-001	9.85192E-004	5	..........a	-327.66
	1059	212	-3.59857E-001	-1.21324E-007	0.00000E+000	-3.60000E-001	9.92392E-004	5	..........a	-327.66
	1062	212.6	-3.89847E-001	-1.26868E-007	0.00000E+000	-3.90000E-001	9.87992E-004	5	..........a	-327.66
	1065	213.2	-4.19744E-001	-1.32487E-007	0.00000E+000	-4.20000E-001	9.73392E-004	5	..........a	-327.66
	1068	213.8	-4.49816E-001	-1.38189E-007	0.00000E+000	-4.50000E-001	9.81692E-004	5	..........a	-327.66
	1071	214.4	-4.79800E-001	-1.43738E-007	0.00000E+000	-4.80000E-001	9.81992E-004	5	..........a	-327.66
	1074	215	-5.09802E-001	-1.49286E-007	0.00000E+000	-5.10000E-001	9.87492E-004	5	..........a	-327.66
	1077	215.6	-5.39727E-001	-1.55038E-007	0.00000E+000	-5.40000E-001	9.64092E-004	5	..........a	-327.66
	1080	216.2	-5.69822E-001	-1.61044E-007	0.00000E+000	-5.70000E-001	9.98292E-004	5	..........a	-327.66
	1083	216.8	-5.99688E-001	-1.67625E-007	0.00000E+000	-6.00000E-001	9.78792E-004	5	..........a	-327.66
CURVE5	TABLE
	Pt	T	Vf	Im	Vu	Sig	Ach	IERange	Over	Temp
	#	s	V vs. Ref.	A	V	V	V	#	bits	deg C
	1084	217	-5.89812E-001	-1.41039E-007	0.00000E+000	-5.90000E-001	9.68592E-004	5	..........a	-327.66
	1085	217.2	-5.79784E-001	-1.24161E-007	0.00000E+000	-5.80000E-001	9.80392E-004	5	..........a	-327.66
	1086	217.4	-5.69818E-001	-1.11135E-007	0.00000E+000	-5.70000E-001	9.72192E-004	5	..........a	-327.66
	1087	217.6	-5.59838E-001	-1.00663E-007	0.00000E+000	-5.60000E-001	9.75692E-004	5	..........a	-327.66
	1088	217.8	-5.49839E-001	-9.17208E-008	0.00000E+000	-5.50000E-001	9.78792E-004	5	..........a	-327.66
	1089	218	-5.39764E-001	-8.40451E-008	0.00000E+000	-5.40000E-001	9.73592E-004	5	..........a	-327.66
	1090	218.2	-5.29825E-001	-7.72364E-008	0.00000E+000	-5.30000E-001	9.81192E-004	5	..........a	-327.66
	1091	218.4	-5.19811E-001	-7.12234E-008	0.00000E+000	-5.20000E-001	9.67192E-004	5	..........a	-327.66
	1092	218.6	-5.09832E-001	-6.57692E-008	0.00000E+000	-5.10000E-001	9.78492E-004	5	..........a	-327.66
	1093	218.8	-4.99812E-001	-6.08010E-008	0.00000E+000	-5.00000E-001	9.57392E-004	5	..........a	-327.66
	1094	219	-4.89835E-001	-5.62055E-008	0.00000E+000	-4.90000E-001	9.72592E-004	5	..........a	-327.66
	1095	219.2	-4.79828E-001	-5.18607E-008	0.00000E+000	-4.80000E-001	9.67792E-004	5	..........a	-327.66
	1096	219.4	-4.69840E-001	-4.78768E-008	0.00000E+000	-4.70000E-001	9.67292E-004	5	..........a	-327.66
	1097	219.6	-4.59818E-001	-4.40541E-008	0.00000E+000	-4.60000E-001	9.58092E-004	5	..........a	-327.66
	1098	219.8	-4.49840E-001	-4.04240E-008	0.00000E+000	-4.50000E-001	9.75592E-004	5	..........a	-327.66
	1099	220	-4.39869E-001	-3.69260E-008	0.00000E+000	-4.40000E-001	9.70292E-004	5	..........a	-327.66
	1100	220.2	-4.29856E-001	-3.36401E-008	0.00000E+000	-4.30000E-001	9.69392E-004	5	..........a	-327.66
	1101	220.4	-4.19808E-001	-3.05092E-008	0.00000E+000	-4.20000E-001	9.73792E-004	5	..........a	-327.66
	1102	220.6	-4.09886E-001	-2.73563E-008	0.00000E+000	-4.10000E-001	9.76892E-004	5	..........a	-327.66
	1103	220.8	-3.99854E-001	-2.43493E-008	0.00000E+000	-4.00000E-001	9.70292E-004	5	..........a	-327.66
	1104	221	-3.89905E-001	-2.14505E-008	0.00000E+000	-3.90000E-001	9.76492E-004	5	..........a	-327.66
	1105	221.2	-3.79836E-001	-1.85778E-008	0.00000E+000	-3.80000E-001	9.69992E-004	5	..........a	-327.66
	1106	221.4	-3.69841E-001	-1.57717E-008	0.00000E+000	-3.70000E-001	9.67292E-004	5	..........a	-327.66
	1107	221.6	-3.59899E-001	-1.31017E-008	0.00000E+000	-3.60000E-001	9.70092E-004	5	..........a	-327.66
	1108	221.8	-3.49873E-001	-1.04413E-008	0.00000E+000	-3.50000E-001	9.77992E-004	5	..........a	-327.66
	1109	222	-3.39824E-001	-7.79594E-009	0.00000E+000	-3.40000E-001	9.70792E-004	5	..........a	-327.66
	1110	222.2	-3.29876E-001	-5.20925E-009	0.00000E+000	-3.30000E-001	9.73792E-004	5	..........a	-327.66
	1111	222.4	-3.19880E-001	-2.64197E-009	0.00000E+000	-3.20000E-001	9.67392E-004	5	..........a	-327.66
	1112	222.6	-3.09934E-001	-1.59959E-010	0.00000E+000	-3.10000E-001	9.57492E-004	5	..........a	-327.66
	1113	222.8	-2.99889E-001	2.42696E-009	0.00000E+000	-3.00000E-001	9.63392E-004	5	..........a	-327.66
	1114	223	-2.89911E-001	4.91824E-009	0.00000E+000	-2.90000E-001	9.85592E-004	5	..........a	-327.66
	1115	223.2	-2.79941E-001	7.34080E-009	0.00000E+000	-2.80000E-001	9.77092E-004	5	..........a	-327.66
	1116	223.4	-2.69876E-001	9.72785E-009	0.00000E+000	-2.70000E-001	9.83192E-004	5	..........a	-327.66
	1117	223.6	-2.59827E-001	1.20319E-008	0.00000E+000	-2.60000E-001	9.69892E-004	5	..........a	-327.66
	1118	223.8	-2.49902E-001	1.44328E-008	0.00000E+000	-2.50000E-001	9.70392E-004	5	..........a	-327.66
	1119	224	-2.39902E-001	1.67775E-008	0.00000E+000	-2.40000E-001	9.53092E-004	5	..........a	-327.66
	1120	224.2	-2.29956E-001	1.90069E-008	0.00000E+000	-2.30000E-001	9.78692E-004	5	..........a	-327.66