File: data/raw/batch_data/20240424_ZY_GM0016_HL03_E13_CV50.DTA
EXPLAIN
TAG	CV
TITLE	LABEL	Cyclic Voltammetry	Test &Identifier
DATE	LABEL	4/24/2024	Date
TIME	LABEL	19:34:43	Time
NOTES	NOTES	1	&Notes...

PSTAT	PSTAT	REF600P-43058	Potentiostat
VINIT	POTEN	0.00000E+000	T	Initial &E (V)
VLIMIT1	POTEN	-6.00000E-001	F	Scan Limit &1 (V)
VLIMIT2	POTEN	8.00000E-001	F	Scan Limit &2 (V)
VFINAL	POTEN	0.00000E+000	T	Final &E (V)
SCANRATE	QUANT	4.99999E+001	&Scan Rate (mV/s)
STEPSIZE	QUANT	1.00000E+001	St&ep Size (mV)
CYCLES	IQUANT	4	C&ycles (#)
IMODE	SELECTOR	0	I/E Range &Mode
IRANGE	QUANT	1.00000E-005	&Max Current (mA)
AREA	QUANT	1.00000E+000	Electrode &Area (cm^2)
ELECTRODETYPE	SELECTOR	0	Electrode Type
STRIPPING	TOGGLE	F	Used for Stripping
POLARITY	TOGGLE	F	Signal Polarity
CONDIT	TWOPARAM	F	1.50000E+001	0.00000E+000	Conditionin&g	Time(s)	E(V)
DELAY	TWOPARAM	T	1.00000E+001	0.00000E+000	Init. De&lay	Time(s)	Stab.(mV/s)
EQDELAY	QUANT	1.00000E+001	Equil. &Time (s)
IRCOMP	SELECTOR	0	IRCom&p
PFCOR	QUANT	5.00000E+001	PF Corr. (ohm)
SAMPLINGMODE	SELECTOR	1	Sampling &Mode
OCVCURVE	TABLE	39
	Pt	T	Vf	Vm	Ach	Over	Temp
	#	s	V vs. Ref.	V	V	bits	deg C
	0	0.258333	1.25664E-002	1.25664E-002	2.50526E-004	..........a	-327.66
	1	0.516667	1.25670E-002	1.26003E-002	2.42726E-004	..........a	-327.66
	2	0.775	1.25710E-002	1.26331E-002	2.40392E-004	..........a	-327.66
	3	1.03333	1.25824E-002	1.26666E-002	2.38726E-004	..........a	-327.66
	4	1.29167	1.26030E-002	1.26991E-002	2.48126E-004	..........a	-327.66
	5	1.55	1.26309E-002	1.27292E-002	2.32392E-004	..........a	-327.66
	6	1.80833	1.26624E-002	1.27628E-002	2.33326E-004	..........a	-327.66
	7	2.06667	1.26950E-002	1.27946E-002	2.32392E-004	..........a	-327.66
	8	2.325	1.27276E-002	1.28271E-002	2.37926E-004	..........a	-327.66
	9	2.58333	1.27600E-002	1.28621E-002	2.44126E-004	..........a	-327.66
	10	2.84167	1.27926E-002	1.28931E-002	2.39859E-004	..........a	-327.66
	11	3.1	1.28254E-002	1.29263E-002	2.40659E-004	..........a	-327.66
	12	3.35833	1.28582E-002	1.29574E-002	2.30792E-004	..........a	-327.66
	13	3.61667	1.28907E-002	1.29822E-002	2.30259E-004	..........a	-327.66
	14	3.875	1.29221E-002	1.30082E-002	2.37592E-004	..........a	-327.66
	15	4.13333	1.29518E-002	1.30313E-002	2.26992E-004	..........a	-327.66
	16	4.39167	1.29793E-002	1.30507E-002	2.31859E-004	..........a	-327.66
	17	4.65	1.30045E-002	1.30729E-002	2.23392E-004	..........a	-327.66
	18	4.90833	1.30278E-002	1.30947E-002	2.36259E-004	..........a	-327.66
	19	5.16667	1.30499E-002	1.31160E-002	2.37259E-004	..........a	-327.66
	20	5.425	1.30716E-002	1.31405E-002	2.27392E-004	..........a	-327.66
	21	5.68333	1.30933E-002	1.31603E-002	2.39126E-004	..........a	-327.66
	22	5.94167	1.31152E-002	1.31839E-002	2.29592E-004	..........a	-327.66
	23	6.2	1.31374E-002	1.32097E-002	2.25059E-004	..........a	-327.66
	24	6.45833	1.31600E-002	1.32313E-002	2.24926E-004	..........a	-327.66
	25	6.71667	1.31830E-002	1.32503E-002	2.29926E-004	..........a	-327.66
	26	6.975	1.32059E-002	1.32739E-002	2.29526E-004	..........a	-327.66
	27	7.23333	1.32283E-002	1.32971E-002	2.33726E-004	..........a	-327.66
	28	7.49167	1.32504E-002	1.33209E-002	2.25192E-004	..........a	-327.66
	29	7.75	1.32728E-002	1.33479E-002	2.41526E-004	..........a	-327.66
	30	8.00833	1.32962E-002	1.33759E-002	2.31059E-004	..........a	-327.66
	31	8.26667	1.33208E-002	1.34024E-002	2.37792E-004	..........a	-327.66
	32	8.525	1.33465E-002	1.34269E-002	2.19926E-004	..........a	-327.66
	33	8.78333	1.33730E-002	1.34546E-002	2.33392E-004	..........a	-327.66
	34	9.04167	1.33999E-002	1.35034E-002	2.24792E-004	..........a	-327.66
	35	9.3	1.34293E-002	1.35705E-002	2.28326E-004	..........a	-327.66
	36	9.5583	1.34656E-002	1.36381E-002	2.30792E-004	..........a	-327.66
	37	9.8167	1.35119E-002	1.36948E-002	2.40659E-004	..........a	-327.66
	38	10.075	1.35672E-002	1.37450E-002	2.30059E-004	..........a	-327.66
EOC	QUANT	0.0135672	Open Circuit (V)
PSTATMODEL	IQUANT	7	Pstat Model
PSTATSECTION	LABEL	REF600P-43058	Pstat Section
PSTATSERIALNO	LABEL	43058	Pstat Serial Number
CTRLMODE	IQUANT	1	Control Mode
ELECTROMETER	IQUANT	0	RE=0 or CS=1
IESTAB	IQUANT	2	I/E Stability
CASPEED	IQUANT	4	Control Amp Speed
CONVENTION	IQUANT	1	Current Convention
ICHRANGE	IQUANT	2	Ich Range
ICHRANGEMODE	TOGGLE	F	Ich Auto Range
ICHOFFSETENABLE	TOGGLE	F	Ich Offset Enable
ICHOFFSET	QUANT	0	Ich Offset (V)
ICHFILTER	IQUANT	2	Ich Filter
VCHRANGE	IQUANT	2	Vch Range
VCHRANGEMODE	TOGGLE	F	Vch Auto Range
VCHOFFSETENABLE	TOGGLE	F	Vch Offset Enable
VCHOFFSET	QUANT	0	Vch Offset (V)
VCHFILTER	IQUANT	2	Vch Filter
ACHRANGE	IQUANT	2	Ach Range
ACHOFFSETENABLE	TOGGLE	F	Ach Offset Enable
ACHOFFSET	QUANT	0	Ach Offset (V)
ACHFILTER	IQUANT	1	Ach Filter
IERANGELOWERLIMIT	IQUANT	1	I/E Range Lower Limit
IERANGEMODE	TOGGLE	T	I/E AutoRange
IERANGE	IQUANT	4	I/E Range
POSFEEDENABLE	TOGGLE	F	Positive Feedback IR Comp
POSFEEDRESISTANCE	QUANT	0	Positive Feedback Resistance (ohm)
ACHSELECT	IQUANT	4	Ach Select
SENSECABLEID	IQUANT	7	Sense Cable ID
PWRCABLEID	IQUANT	7	Power Cable ID
DCCALDATE	LABEL	3/22/2024	DC Calibration Date
ACCALDATE	LABEL	3/22/2024	AC Calibration Date
THERMOSELECT	IQUANT	1	Thermo Select
FRAMEWORKVERSION	LABEL	7.8.4	Framework Version
INSTRUMENTVERSION	LABEL	4.42	Instrument Version
CURVE1	TABLE
	Pt	T	Vf	Im	Vu	Sig	Ach	IERange	Over	Temp
	#	s	V vs. Ref.	A	V	V	V	#	bits	deg C
	0	0.2	1.36837E-002	6.89491E-011	0.00000E+000	1.35500E-002	9.99892E-004	5	..........a	-327.66
	2	0.6	-6.43361E-003	-7.61510E-009	0.00000E+000	-6.45000E-003	9.99092E-004	5	..........a	-327.66
	4	1	-2.63911E-002	-1.24811E-008	0.00000E+000	-2.64500E-002	9.95192E-004	5	..........a	-327.66
	6	1.4	-4.64106E-002	-1.66283E-008	0.00000E+000	-4.64500E-002	1.00429E-003	5	..........a	-327.66
	8	1.8	-6.63475E-002	-2.04045E-008	0.00000E+000	-6.64500E-002	1.00339E-003	5	..........a	-327.66
	10	2.2	-8.62884E-002	-2.40460E-008	0.00000E+000	-8.64500E-002	9.92492E-004	5	..........a	-327.66
	12	2.6	-1.06365E-001	-2.76526E-008	0.00000E+000	-1.06450E-001	9.94092E-004	5	..........a	-327.66
	14	3	-1.26398E-001	-3.12782E-008	0.00000E+000	-1.26450E-001	1.00539E-003	5	..........a	-327.66
	16	3.4	-1.46349E-001	-3.50052E-008	0.00000E+000	-1.46450E-001	9.88992E-004	5	..........a	-327.66
	18	3.8	-1.66355E-001	-3.87969E-008	0.00000E+000	-1.66450E-001	9.86492E-004	5	..........a	-327.66
	20	4.2	-1.86338E-001	-4.26713E-008	0.00000E+000	-1.86450E-001	9.85792E-004	5	..........a	-327.66
	22	4.6	-2.06337E-001	-4.65221E-008	0.00000E+000	-2.06450E-001	9.88092E-004	5	..........a	-327.66
	24	5	-2.26301E-001	-5.02977E-008	0.00000E+000	-2.26450E-001	1.00359E-003	5	..........a	-327.66
	26	5.4	-2.46316E-001	-5.40431E-008	0.00000E+000	-2.46450E-001	9.87192E-004	5	..........a	-327.66
	28	5.8	-2.66293E-001	-5.77737E-008	0.00000E+000	-2.66450E-001	9.74392E-004	5	..........a	-327.66
	30	6.2	-2.86337E-001	-6.15009E-008	0.00000E+000	-2.86450E-001	9.84592E-004	5	..........a	-327.66
	32	6.6	-3.06316E-001	-6.53512E-008	0.00000E+000	-3.06450E-001	9.83692E-004	5	..........a	-327.66
	34	7	-3.26341E-001	-6.93054E-008	0.00000E+000	-3.26450E-001	1.01099E-003	5	..........a	-327.66
	36	7.4	-3.46295E-001	-7.34500E-008	0.00000E+000	-3.46450E-001	9.97792E-004	5	..........a	-327.66
	38	7.8	-3.66329E-001	-7.77670E-008	0.00000E+000	-3.66450E-001	1.01289E-003	5	..........a	-327.66
	40	8.2	-3.86256E-001	-8.22904E-008	0.00000E+000	-3.86450E-001	9.92092E-004	5	..........a	-327.66
	42	8.6	-4.06288E-001	-8.69309E-008	0.00000E+000	-4.06450E-001	9.81092E-004	5	..........a	-327.66
	44	9	-4.26248E-001	-9.17376E-008	0.00000E+000	-4.26450E-001	9.90892E-004	5	..........a	-327.66
	46	9.4	-4.46192E-001	-9.67172E-008	0.00000E+000	-4.46450E-001	9.96892E-004	5	..........a	-327.66
	48	9.8	-4.66185E-001	-1.01825E-007	0.00000E+000	-4.66450E-001	9.95092E-004	5	..........a	-327.66
	50	10.2	-4.86284E-001	-1.07012E-007	0.00000E+000	-4.86450E-001	1.02489E-003	5	..........a	-327.66
	52	10.6	-5.06225E-001	-1.12236E-007	0.00000E+000	-5.06450E-001	1.00589E-003	5	..........a	-327.66
	54	11	-5.26244E-001	-1.17535E-007	0.00000E+000	-5.26450E-001	9.84692E-004	5	..........a	-327.66
	56	11.4	-5.46196E-001	-1.22809E-007	0.00000E+000	-5.46450E-001	9.92792E-004	5	..........a	-327.66
	58	11.8	-5.66255E-001	-1.28043E-007	0.00000E+000	-5.66450E-001	9.99392E-004	5	..........a	-327.66
	60	12.2	-5.86212E-001	-1.33289E-007	0.00000E+000	-5.86450E-001	9.79692E-004	5	..........a	-327.66
	62	12.6	-5.86210E-001	-1.20217E-007	0.00000E+000	-5.86450E-001	9.82192E-004	5	..........a	-327.66
	64	13	-5.66311E-001	-1.01286E-007	0.00000E+000	-5.66450E-001	1.00299E-003	5	..........a	-327.66
	66	13.4	-5.46221E-001	-8.80392E-008	0.00000E+000	-5.46450E-001	9.76492E-004	5	..........a	-327.66
	68	13.8	-5.26267E-001	-7.74271E-008	0.00000E+000	-5.26450E-001	9.83792E-004	5	..........a	-327.66
	70	14.2	-5.06262E-001	-6.84155E-008	0.00000E+000	-5.06450E-001	9.95492E-004	5	..........a	-327.66
	72	14.6	-4.86309E-001	-6.05620E-008	0.00000E+000	-4.86450E-001	9.95292E-004	5	..........a	-327.66
	74	15	-4.66235E-001	-5.35423E-008	0.00000E+000	-4.66450E-001	1.00109E-003	5	..........a	-327.66
	76	15.4	-4.46207E-001	-4.71765E-008	0.00000E+000	-4.46450E-001	1.00499E-003	5	..........a	-327.66
	78	15.8	-4.26269E-001	-4.13706E-008	0.00000E+000	-4.26450E-001	9.67892E-004	5	..........a	-327.66
	80	16.2	-4.06333E-001	-3.59484E-008	0.00000E+000	-4.06450E-001	1.00239E-003	5	..........a	-327.66
	82	16.6	-3.86277E-001	-3.09707E-008	0.00000E+000	-3.86450E-001	9.93292E-004	5	..........a	-327.66
	84	17	-3.66336E-001	-2.62951E-008	0.00000E+000	-3.66450E-001	9.89392E-004	5	..........a	-327.66
	86	17.4	-3.46317E-001	-2.19381E-008	0.00000E+000	-3.46450E-001	9.81392E-004	5	..........a	-327.66
	88	17.8	-3.26392E-001	-1.78018E-008	0.00000E+000	-3.26450E-001	9.99892E-004	5	..........a	-327.66
	90	18.2	-3.06358E-001	-1.38565E-008	0.00000E+000	-3.06450E-001	9.89192E-004	5	..........a	-327.66
	92	18.6	-2.86373E-001	-1.01957E-008	0.00000E+000	-2.86450E-001	1.00379E-003	5	..........a	-327.66
	94	19	-2.66315E-001	-6.65824E-009	0.00000E+000	-2.66450E-001	9.72592E-004	5	..........a	-327.66
	96	19.4	-2.46323E-001	-3.25239E-009	0.00000E+000	-2.46450E-001	9.93192E-004	5	..........a	-327.66
	98	19.8	-2.26339E-001	-4.35751E-011	0.00000E+000	-2.26450E-001	9.72792E-004	5	..........a	-327.66
	100	20.2	-2.06430E-001	3.15706E-009	0.00000E+000	-2.06450E-001	1.02339E-003	5	..........a	-327.66
	102	20.6	-1.86372E-001	6.18817E-009	0.00000E+000	-1.86450E-001	1.00039E-003	5	..........a	-327.66
	104	21	-1.66391E-001	9.12849E-009	0.00000E+000	-1.66450E-001	1.00199E-003	5	..........a	-327.66
	106	21.4	-1.46389E-001	1.19784E-008	0.00000E+000	-1.46450E-001	1.00409E-003	5	..........a	-327.66
	108	21.8	-1.26435E-001	1.47919E-008	0.00000E+000	-1.26450E-001	9.93292E-004	5	..........a	-327.66
	110	22.2	-1.06377E-001	1.75133E-008	0.00000E+000	-1.06450E-001	1.00309E-003	5	..........a	-327.66
	112	22.6	-8.64010E-002	2.02047E-008	0.00000E+000	-8.64500E-002	1.00539E-003	5	..........a	-327.66
	114	23	-6.63716E-002	2.28580E-008	0.00000E+000	-6.64500E-002	9.89792E-004	5	..........a	-327.66
	116	23.4	-4.64194E-002	2.54723E-008	0.00000E+000	-4.64500E-002	9.89692E-004	5	..........a	-327.66
	118	23.8	-2.64018E-002	2.80953E-008	0.00000E+000	-2.64500E-002	9.94192E-004	5	..........a	-327.66
	120	24.2	-6.43476E-003	3.06867E-008	0.00000E+000	-6.45000E-003	9.87992E-004	5	..........a	-327.66
	122	24.6	1.37031E-002	3.32731E-008	0.00000E+000	1.35500E-002	1.00169E-003	5	..........a	-327.66
	124	25	3.35993E-002	3.58814E-008	0.00000E+000	3.35500E-002	9.96392E-004	5	..........a	-327.66
	126	25.4	5.35809E-002	3.84909E-008	0.00000E+000	5.35500E-002	1.01259E-003	5	..........a	-327.66
	128	25.8	7.35466E-002	4.11560E-008	0.00000E+000	7.35500E-002	1.01139E-003	5	..........a	-327.66
	130	26.2	9.36411E-002	4.38874E-008	0.00000E+000	9.35500E-002	9.79292E-004	5	..........a	-327.66
	132	26.6	1.13607E-001	4.65996E-008	0.00000E+000	1.13550E-001	9.97592E-004	5	..........a	-327.66
	134	27	1.33599E-001	4.93775E-008	0.00000E+000	1.33550E-001	1.00789E-003	5	..........a	-327.66
	136	27.4	1.53549E-001	5.21916E-008	0.00000E+000	1.53550E-001	9.97992E-004	5	..........a	-327.66
	138	27.8	1.73615E-001	5.50542E-008	0.00000E+000	1.73550E-001	9.90992E-004	5	..........a	-327.66
	140	28.2	1.93589E-001	5.80337E-008	0.00000E+000	1.93550E-001	9.98392E-004	5	..........a	-327.66
	142	28.6	2.13560E-001	6.14806E-008	0.00000E+000	2.13550E-001	9.92592E-004	5	..........a	-327.66
	144	29	2.33521E-001	6.49630E-008	0.00000E+000	2.33550E-001	9.99292E-004	5	..........a	-327.66
	146	29.4	2.53555E-001	6.81406E-008	0.00000E+000	2.53550E-001	9.89892E-004	5	..........a	-327.66
	148	29.8	2.73514E-001	7.14648E-008	0.00000E+000	2.73550E-001	9.94092E-004	5	..........a	-327.66
	150	30.2	2.93534E-001	7.52061E-008	0.00000E+000	2.93550E-001	9.98292E-004	5	..........a	-327.66
	152	30.6	3.13522E-001	7.93803E-008	0.00000E+000	3.13550E-001	1.00639E-003	5	..........a	-327.66
	154	31	3.33516E-001	8.41345E-008	0.00000E+000	3.33550E-001	9.99992E-004	5	..........a	-327.66
	156	31.4	3.53525E-001	8.94080E-008	0.00000E+000	3.53550E-001	1.00769E-003	5	..........a	-327.66
	158	31.8	3.73456E-001	9.51357E-008	0.00000E+000	3.73550E-001	1.00269E-003	5	..........a	-327.66
	160	32.2	3.93517E-001	1.01263E-007	0.00000E+000	3.93550E-001	9.91492E-004	5	..........a	-327.66
	162	32.6	4.13496E-001	1.07596E-007	0.00000E+000	4.13550E-001	1.00079E-003	5	..........a	-327.66
	164	33	4.33477E-001	1.14102E-007	0.00000E+000	4.33550E-001	1.00569E-003	5	..........a	-327.66
	166	33.4	4.53499E-001	1.20652E-007	0.00000E+000	4.53550E-001	9.80892E-004	5	..........a	-327.66
	168	33.8	4.73465E-001	1.27358E-007	0.00000E+000	4.73550E-001	9.90992E-004	5	..........a	-327.66
	170	34.2	4.93480E-001	1.34007E-007	0.00000E+000	4.93550E-001	1.00279E-003	5	..........a	-327.66
	172	34.6	5.13464E-001	1.40630E-007	0.00000E+000	5.13550E-001	9.99492E-004	5	..........a	-327.66
	174	35	5.33472E-001	1.47173E-007	0.00000E+000	5.33550E-001	9.86992E-004	5	..........a	-327.66
	176	35.4	5.53466E-001	1.53629E-007	0.00000E+000	5.53550E-001	1.00469E-003	5	..........a	-327.66
	178	35.8	5.73457E-001	1.60153E-007	0.00000E+000	5.73550E-001	9.99892E-004	5	..........a	-327.66
	180	36.2	5.93453E-001	1.66642E-007	0.00000E+000	5.93550E-001	9.95892E-004	5	..........a	-327.66
	182	36.6	6.13449E-001	1.73226E-007	0.00000E+000	6.13550E-001	9.88792E-004	5	..........a	-327.66
	184	37	6.33407E-001	1.79983E-007	0.00000E+000	6.33550E-001	1.01309E-003	5	..........a	-327.66
	186	37.4	6.53445E-001	1.87444E-007	0.00000E+000	6.53550E-001	1.00039E-003	5	..........a	-327.66
	188	37.8	6.73413E-001	1.95704E-007	0.00000E+000	6.73550E-001	1.00179E-003	5	..........a	-327.66
	190	38.2	6.93397E-001	2.03987E-007	0.00000E+000	6.93550E-001	9.92592E-004	5	..........a	-327.66
	192	38.6	7.13404E-001	2.11831E-007	0.00000E+000	7.13550E-001	1.01589E-003	5	..........a	-327.66
	194	39	7.33419E-001	2.20429E-007	0.00000E+000	7.33550E-001	9.73892E-004	5	..........a	-327.66
	196	39.4	7.53410E-001	2.28461E-007	0.00000E+000	7.53550E-001	9.98092E-004	5	..........a	-327.66
	198	39.8	7.73393E-001	2.38231E-007	0.00000E+000	7.73550E-001	9.82092E-004	5	..........a	-327.66
	200	40.2	7.93364E-001	2.49643E-007	0.00000E+000	7.93550E-001	1.01009E-003	5	..........a	-327.66
	201	40.4	8.03407E-001	2.56050E-007	0.00000E+000	8.03550E-001	9.96292E-004	5	..........a	-327.66
CURVE2	TABLE
	Pt	T	Vf	Im	Vu	Sig	Ach	IERange	Over	Temp
	#	s	V vs. Ref.	A	V	V	V	#	bits	deg C
	202	40.6	7.89951E-001	2.07098E-007	0.00000E+000	7.90000E-001	9.92092E-004	5	..........a	-327.66
	205	41.2	7.59883E-001	1.47057E-007	0.00000E+000	7.60000E-001	1.00039E-003	5	..........a	-327.66
	208	41.8	7.29955E-001	1.13994E-007	0.00000E+000	7.30000E-001	1.00159E-003	5	..........a	-327.66
	211	42.4	6.99923E-001	9.15887E-008	0.00000E+000	7.00000E-001	9.92892E-004	5	..........a	-327.66
	214	43	6.69964E-001	7.45904E-008	0.00000E+000	6.70000E-001	1.02139E-003	5	..........a	-327.66
	217	43.6	6.39912E-001	6.07919E-008	0.00000E+000	6.40000E-001	1.00529E-003	5	..........a	-327.66
	220	44.2	6.09951E-001	4.90999E-008	0.00000E+000	6.10000E-001	1.00579E-003	5	..........a	-327.66
	223	44.8	5.80006E-001	3.88555E-008	0.00000E+000	5.80000E-001	9.93392E-004	5	..........a	-327.66
	226	45.4	5.50045E-001	2.97588E-008	0.00000E+000	5.50000E-001	1.00079E-003	5	..........a	-327.66
	229	46	5.19985E-001	2.14490E-008	0.00000E+000	5.20000E-001	9.90492E-004	5	..........a	-327.66
	232	46.6	4.89959E-001	1.36756E-008	0.00000E+000	4.90000E-001	1.01609E-003	5	..........a	-327.66
	235	47.2	4.60017E-001	6.34145E-009	0.00000E+000	4.60000E-001	9.84792E-004	5	..........a	-327.66
	238	47.8	4.29977E-001	-1.02813E-009	0.00000E+000	4.30000E-001	1.00919E-003	5	..........a	-327.66
	241	48.4	4.00056E-001	-8.27709E-009	0.00000E+000	4.00000E-001	9.89692E-004	5	..........a	-327.66
	244	49	3.70072E-001	-1.56305E-008	0.00000E+000	3.70000E-001	9.91792E-004	5	..........a	-327.66
	247	49.6	3.40107E-001	-2.30147E-008	0.00000E+000	3.40000E-001	9.83992E-004	5	..........a	-327.66
	250	50.2	3.10079E-001	-3.03789E-008	0.00000E+000	3.10000E-001	1.00509E-003	5	..........a	-327.66
	253	50.8	2.79993E-001	-3.75971E-008	0.00000E+000	2.80000E-001	9.94992E-004	5	..........a	-327.66
	256	51.4	2.50058E-001	-4.43768E-008	0.00000E+000	2.50000E-001	1.00579E-003	5	..........a	-327.66
	259	52	2.20074E-001	-5.00981E-008	0.00000E+000	2.20000E-001	9.93992E-004	5	..........a	-327.66
	262	52.6	1.90133E-001	-5.44395E-008	0.00000E+000	1.90000E-001	9.97592E-004	5	..........a	-327.66
[...]
	1023	204.8	6.19888E-001	1.44465E-007	0.00000E+000	6.20000E-001	1.01039E-003	5	..........a	-327.66
	1026	205.4	6.49901E-001	1.52967E-007	0.00000E+000	6.50000E-001	1.01699E-003	5	..........a	-327.66
	1029	206	6.79890E-001	1.61794E-007	0.00000E+000	6.80000E-001	9.79892E-004	5	..........a	-327.66
	1032	206.6	7.09949E-001	1.72037E-007	0.00000E+000	7.10000E-001	1.00669E-003	5	..........a	-327.66
	1035	207.2	7.39870E-001	1.84655E-007	0.00000E+000	7.40000E-001	9.90492E-004	5	..........a	-327.66
	1038	207.8	7.69882E-001	2.00652E-007	0.00000E+000	7.70000E-001	1.01549E-003	5	..........a	-327.66
	1041	208.4	7.99844E-001	2.20296E-007	0.00000E+000	8.00000E-001	1.01849E-003	5	..........a	-327.66
CURVE5	TABLE
	Pt	T	Vf	Im	Vu	Sig	Ach	IERange	Over	Temp
	#	s	V vs. Ref.	A	V	V	V	#	bits	deg C
	1042	208.6	7.89966E-001	1.84649E-007	0.00000E+000	7.90000E-001	1.01289E-003	5	..........a	-327.66
	1043	208.8	7.79887E-001	1.61014E-007	0.00000E+000	7.80000E-001	9.94892E-004	5	..........a	-327.66
	1044	209	7.69895E-001	1.43375E-007	0.00000E+000	7.70000E-001	1.00229E-003	5	..........a	-327.66
	1045	209.2	7.59905E-001	1.29428E-007	0.00000E+000	7.60000E-001	1.01339E-003	5	..........a	-327.66
	1046	209.4	7.49973E-001	1.17912E-007	0.00000E+000	7.50000E-001	9.95392E-004	5	..........a	-327.66
	1047	209.6	7.39897E-001	1.08178E-007	0.00000E+000	7.40000E-001	9.94492E-004	5	..........a	-327.66
	1048	209.8	7.29895E-001	9.97437E-008	0.00000E+000	7.30000E-001	1.01359E-003	5	..........a	-327.66
	1049	210	7.19904E-001	9.23704E-008	0.00000E+000	7.20000E-001	9.96892E-004	5	..........a	-327.66
	1050	210.2	7.09965E-001	8.57470E-008	0.00000E+000	7.10000E-001	1.01759E-003	5	..........a	-327.66
	1051	210.4	6.99917E-001	7.97212E-008	0.00000E+000	7.00000E-001	1.00259E-003	5	..........a	-327.66
	1052	210.6	6.89900E-001	7.42480E-008	0.00000E+000	6.90000E-001	1.00249E-003	5	..........a	-327.66
	1053	210.8	6.79919E-001	6.92151E-008	0.00000E+000	6.80000E-001	9.89492E-004	5	..........a	-327.66
	1054	211	6.69961E-001	6.45221E-008	0.00000E+000	6.70000E-001	9.91592E-004	5	..........a	-327.66
	1055	211.2	6.59941E-001	6.00846E-008	0.00000E+000	6.60000E-001	9.88992E-004	5	..........a	-327.66
	1056	211.4	6.49945E-001	5.59506E-008	0.00000E+000	6.50000E-001	1.00219E-003	5	..........a	-327.66
	1057	211.6	6.39888E-001	5.20380E-008	0.00000E+000	6.40000E-001	1.00619E-003	5	..........a	-327.66
	1058	211.8	6.30010E-001	4.83121E-008	0.00000E+000	6.30000E-001	9.94192E-004	5	..........a	-327.66
	1059	212	6.19934E-001	4.47519E-008	0.00000E+000	6.20000E-001	1.01549E-003	5	..........a	-327.66
	1060	212.2	6.09957E-001	4.13434E-008	0.00000E+000	6.10000E-001	1.00509E-003	5	..........a	-327.66
	1061	212.4	5.99989E-001	3.80853E-008	0.00000E+000	6.00000E-001	9.93992E-004	5	..........a	-327.66
	1062	212.6	5.90025E-001	3.49689E-008	0.00000E+000	5.90000E-001	1.00419E-003	5	..........a	-327.66
	1063	212.8	5.79997E-001	3.20005E-008	0.00000E+000	5.80000E-001	1.00539E-003	5	..........a	-327.66
	1064	213	5.69978E-001	2.91423E-008	0.00000E+000	5.70000E-001	9.95392E-004	5	..........a	-327.66
	1065	213.2	5.59962E-001	2.63707E-008	0.00000E+000	5.60000E-001	1.02399E-003	5	..........a	-327.66
	1066	213.4	5.50036E-001	2.36380E-008	0.00000E+000	5.50000E-001	1.00409E-003	5	..........a	-327.66
	1067	213.6	5.40019E-001	2.09904E-008	0.00000E+000	5.40000E-001	9.86992E-004	5	..........a	-327.66
	1068	213.8	5.29960E-001	1.83432E-008	0.00000E+000	5.30000E-001	1.00429E-003	5	..........a	-327.66
	1069	214	5.19984E-001	1.57745E-008	0.00000E+000	5.20000E-001	1.02119E-003	5	..........a	-327.66
	1070	214.2	5.09952E-001	1.32908E-008	0.00000E+000	5.10000E-001	1.01239E-003	5	..........a	-327.66
	1071	214.4	5.00053E-001	1.08445E-008	0.00000E+000	5.00000E-001	9.91892E-004	5	..........a	-327.66
	1072	214.6	4.89950E-001	8.48137E-009	0.00000E+000	4.90000E-001	1.02289E-003	5	..........a	-327.66
	1073	214.8	4.79939E-001	6.14535E-009	0.00000E+000	4.80000E-001	1.03019E-003	5	..........a	-327.66
	1074	215	4.70024E-001	3.82282E-009	0.00000E+000	4.70000E-001	1.00669E-003	5	..........a	-327.66
	1075	215.2	4.60002E-001	1.47595E-009	0.00000E+000	4.60000E-001	1.01649E-003	5	..........a	-327.66
	1076	215.4	4.50015E-001	-9.43599E-010	0.00000E+000	4.50000E-001	1.00559E-003	5	..........a	-327.66
	1077	215.6	4.40009E-001	-3.29115E-009	0.00000E+000	4.40000E-001	1.01189E-003	5	..........a	-327.66
	1078	215.8	4.30032E-001	-5.63647E-009	0.00000E+000	4.30000E-001	9.90292E-004	5	..........a	-327.66
	1079	216	4.20033E-001	-7.99809E-009	0.00000E+000	4.20000E-001	9.98892E-004	5	..........a	-327.66
	1080	216.2	4.10025E-001	-1.04141E-008	0.00000E+000	4.10000E-001	1.01069E-003	5	..........a	-327.66
	1081	216.4	4.00024E-001	-1.27870E-008	0.00000E+000	4.00000E-001	9.99892E-004	5	..........a	-327.66
	1082	216.6	3.90078E-001	-1.52085E-008	0.00000E+000	3.90000E-001	1.01549E-003	5	..........a	-327.66
	1083	216.8	3.80093E-001	-1.76356E-008	0.00000E+000	3.80000E-001	9.93892E-004	5	..........a	-327.66
	1084	217	3.70068E-001	-2.00714E-008	0.00000E+000	3.70000E-001	9.91392E-004	5	..........a	-327.66
	1085	217.2	3.60025E-001	-2.25337E-008	0.00000E+000	3.60000E-001	1.00179E-003	5	..........a	-327.66
	1086	217.4	3.50061E-001	-2.49901E-008	0.00000E+000	3.50000E-001	1.02979E-003	5	..........a	-327.66
	1087	217.6	3.40096E-001	-2.73978E-008	0.00000E+000	3.40000E-001	1.00139E-003	5	..........a	-327.66
	1088	217.8	3.30057E-001	-2.98384E-008	0.00000E+000	3.30000E-001	1.00449E-003	5	..........a	-327.66
	1089	218	3.20058E-001	-3.23164E-008	0.00000E+000	3.20000E-001	1.01299E-003	5	..........a	-327.66
	1090	218.2	3.10071E-001	-3.47221E-008	0.00000E+000	3.10000E-001	1.00769E-003	5	..........a	-327.66
	1091	218.4	3.00105E-001	-3.71531E-008	0.00000E+000	3.00000E-001	9.88992E-004	5	..........a	-327.66
	1092	218.6	2.90076E-001	-3.95919E-008	0.00000E+000	2.90000E-001	1.00919E-003	5	..........a	-327.66
	1093	218.8	2.80008E-001	-4.19949E-008	0.00000E+000	2.80000E-001	9.96792E-004	5	..........a	-327.66
	1094	219	2.70098E-001	-4.42671E-008	0.00000E+000	2.70000E-001	9.95992E-004	5	..........a	-327.66
	1095	219.2	2.60089E-001	-4.64708E-008	0.00000E+000	2.60000E-001	1.00649E-003	5	..........a	-327.66
	1096	219.4	2.50031E-001	-4.85791E-008	0.00000E+000	2.50000E-001	1.01429E-003	5	..........a	-327.66
	1097	219.6	2.40084E-001	-5.05440E-008	0.00000E+000	2.40000E-001	1.01379E-003	5	..........a	-327.66
	1098	219.8	2.30023E-001	-5.24170E-008	0.00000E+000	2.30000E-001	1.01029E-003	5	..........a	-327.66
	1099	220	2.20028E-001	-5.40870E-008	0.00000E+000	2.20000E-001	9.93692E-004	5	..........a	-327.66
	1100	220.2	2.10071E-001	-5.56653E-008	0.00000E+000	2.10000E-001	9.93492E-004	5	..........a	-327.66
	1101	220.4	2.00072E-001	-5.69653E-008	0.00000E+000	2.00000E-001	1.01459E-003	5	..........a	-327.66
	1102	220.6	1.90130E-001	-5.80880E-008	0.00000E+000	1.90000E-001	1.01189E-003	5	..........a	-327.66
	1103	220.8	1.80136E-001	-5.90144E-008	0.00000E+000	1.80000E-001	9.89692E-004	5	..........a	-327.66
	1104	221	1.70113E-001	-5.97560E-008	0.00000E+000	1.70000E-001	1.01829E-003	5	..........a	-327.66
	1105	221.2	1.60101E-001	-6.02932E-008	0.00000E+000	1.60000E-001	1.00909E-003	5	..........a	-327.66
	1106	221.4	1.50113E-001	-6.06611E-008	0.00000E+000	1.50000E-001	1.02449E-003	5	..........a	-327.66
	1107	221.6	1.40154E-001	-6.08663E-008	0.00000E+000	1.40000E-001	9.90992E-004	5	..........a	-327.66
	1108	221.8	1.30103E-001	-6.09638E-008	0.00000E+000	1.30000E-001	9.96492E-004	5	..........a	-327.66
	1109	222	1.20099E-001	-6.09938E-008	0.00000E+000	1.20000E-001	1.00929E-003	5	..........a	-327.66
	1110	222.2	1.10130E-001	-6.10151E-008	0.00000E+000	1.10000E-001	1.00039E-003	5	..........a	-327.66
	1111	222.4	1.00160E-001	-6.10690E-008	0.00000E+000	1.00000E-001	9.88692E-004	5	..........a	-327.66
	1112	222.6	9.01226E-002	-6.12372E-008	0.00000E+000	9.00000E-002	9.93592E-004	5	..........a	-327.66
	1113	222.8	8.00791E-002	-6.14755E-008	0.00000E+000	8.00000E-002	1.00959E-003	5	..........a	-327.66
	1114	223	7.00533E-002	-6.18428E-008	0.00000E+000	7.00000E-002	1.02389E-003	5	..........a	-327.66
	1115	223.2	6.01397E-002	-6.23416E-008	0.00000E+000	6.00000E-002	1.00689E-003	5	..........a	-327.66
	1116	223.4	5.00812E-002	-6.30113E-008	0.00000E+000	5.00000E-002	1.00859E-003	5	..........a	-327.66
	1117	223.6	4.01016E-002	-6.37300E-008	0.00000E+000	4.00000E-002	9.92192E-004	5	..........a	-327.66
	1118	223.8	3.00796E-002	-6.43850E-008	0.00000E+000	3.00000E-002	1.00499E-003	5	..........a	-327.66
	1119	224	2.02014E-002	-6.52223E-008	0.00000E+000	2.00000E-002	9.90192E-004	5	..........a	-327.66
	1120	224.2	1.01369E-002	-6.58679E-008	0.00000E+000	1.00000E-002	9.87192E-004	5	..........a	-327.66