File: data/raw/batch_data/20240321_ZZ_GM0016_HL03_E13_CV50k.DTA
EXPLAIN
TAG	CV
TITLE	LABEL	Cyclic Voltammetry	Test &Identifier
DATE	LABEL	3/21/2024	Date
TIME	LABEL	19:28:02	Time
NOTES	NOTES	1	&Notes...

PSTAT	PSTAT	REF600P-43058	Potentiostat
VINIT	POTEN	0.00000E+000	T	Initial &E (V)
VLIMIT1	POTEN	-6.00000E-001	F	Scan Limit &1 (V)
VLIMIT2	POTEN	8.00000E-001	F	Scan Limit &2 (V)
VFINAL	POTEN	0.00000E+000	T	Final &E (V)
SCANRATE	QUANT	4.99999E+004	&Scan Rate (mV/s)
STEPSIZE	QUANT	1.00000E+001	St&ep Size (mV)
CYCLES	IQUANT	10	C&ycles (#)
IMODE	SELECTOR	1	I/E Range &Mode
IRANGE	QUANT	1.00000E-005	&Max Current (mA)
AREA	QUANT	1.00000E+000	Electrode &Area (cm^2)
ELECTRODETYPE	SELECTOR	0	Electrode Type
STRIPPING	TOGGLE	F	Used for Stripping
POLARITY	TOGGLE	F	Signal Polarity
CONDIT	TWOPARAM	F	1.50000E+001	0.00000E+000	Conditionin&g	Time(s)	E(V)
DELAY	TWOPARAM	T	1.00000E+001	0.00000E+000	Init. De&lay	Time(s)	Stab.(mV/s)
EQDELAY	QUANT	1.00000E+001	Equil. &Time (s)
IRCOMP	SELECTOR	0	IRCom&p
PFCOR	QUANT	5.00000E+001	PF Corr. (ohm)
SAMPLINGMODE	SELECTOR	1	Sampling &Mode
OCVCURVE	TABLE	39
	Pt	T	Vf	Vm	Ach	Over	Temp
	#	s	V vs. Ref.	V	V	bits	deg C
	0	0.258333	3.37575E-001	3.37575E-001	2.53489E-004	..........a	-327.66
	1	0.516667	3.37579E-001	3.37811E-001	2.43356E-004	..........a	-327.66
	2	0.775	3.37607E-001	3.38008E-001	2.58756E-004	..........a	-327.66
	3	1.03333	3.37684E-001	3.38311E-001	2.38622E-004	..........a	-327.66
	4	1.29167	3.37827E-001	3.38487E-001	2.54022E-004	..........a	-327.66
	5	1.55	3.38021E-001	3.38638E-001	2.45356E-004	..........a	-327.66
	6	1.80833	3.38236E-001	3.38849E-001	2.34889E-004	..........a	-327.66
	7	2.06667	3.38445E-001	3.39059E-001	2.39422E-004	..........a	-327.66
	8	2.325	3.38645E-001	3.39287E-001	2.48689E-004	..........a	-327.66
	9	2.58333	3.38845E-001	3.39479E-001	2.33489E-004	..........a	-327.66
	10	2.84167	3.39050E-001	3.39718E-001	2.24556E-004	..........a	-327.66
	11	3.1	3.39262E-001	3.39981E-001	2.43089E-004	..........a	-327.66
	12	3.35833	3.39481E-001	3.40119E-001	2.52422E-004	..........a	-327.66
	13	3.61667	3.39701E-001	3.40296E-001	2.49489E-004	..........a	-327.66
	14	3.875	3.39912E-001	3.40503E-001	2.46489E-004	..........a	-327.66
	15	4.13333	3.40109E-001	3.40694E-001	2.47022E-004	..........a	-327.66
	16	4.39167	3.40299E-001	3.40927E-001	2.47156E-004	..........a	-327.66
	17	4.65	3.40492E-001	3.41114E-001	2.57689E-004	..........a	-327.66
	18	4.90833	3.40693E-001	3.41347E-001	2.50022E-004	..........a	-327.66
	19	5.16667	3.40900E-001	3.41590E-001	2.49822E-004	..........a	-327.66
	20	5.425	3.41114E-001	3.41756E-001	2.58956E-004	..........a	-327.66
	21	5.68333	3.41329E-001	3.41899E-001	2.53222E-004	..........a	-327.66
	22	5.94167	3.41535E-001	3.42111E-001	2.47689E-004	..........a	-327.66
	23	6.2	3.41728E-001	3.42304E-001	2.53222E-004	..........a	-327.66
	24	6.45833	3.41913E-001	3.42525E-001	2.40622E-004	..........a	-327.66
	25	6.71667	3.42101E-001	3.42686E-001	2.45089E-004	..........a	-327.66
	26	6.975	3.42295E-001	3.42921E-001	2.46489E-004	..........a	-327.66
	27	7.23333	3.42493E-001	3.43150E-001	2.51756E-004	..........a	-327.66
	28	7.49167	3.42697E-001	3.43323E-001	2.55756E-004	..........a	-327.66
	29	7.75	3.42903E-001	3.43471E-001	2.45089E-004	..........a	-327.66
	30	8.00833	3.43104E-001	3.43689E-001	2.40956E-004	..........a	-327.66
	31	8.26667	3.43296E-001	3.43882E-001	2.59089E-004	..........a	-327.66
	32	8.525	3.43484E-001	3.44086E-001	2.39089E-004	..........a	-327.66
	33	8.78333	3.43674E-001	3.44256E-001	2.40489E-004	..........a	-327.66
	34	9.04167	3.43866E-001	3.44457E-001	2.51156E-004	..........a	-327.66
	35	9.3	3.44059E-001	3.44688E-001	2.50089E-004	..........a	-327.66
	36	9.5583	3.44255E-001	3.44877E-001	2.37489E-004	..........a	-327.66
	37	9.8167	3.44454E-001	3.45037E-001	2.60489E-004	..........a	-327.66
	38	10.075	3.44652E-001	3.45212E-001	2.43156E-004	..........a	-327.66
EOC	QUANT	0.3446525	Open Circuit (V)
PSTATMODEL	IQUANT	7	Pstat Model
PSTATSECTION	LABEL	REF600P-43058	Pstat Section
PSTATSERIALNO	LABEL	43058	Pstat Serial Number
CTRLMODE	IQUANT	1	Control Mode
ELECTROMETER	IQUANT	0	RE=0 or CS=1
IESTAB	IQUANT	2	I/E Stability
CASPEED	IQUANT	4	Control Amp Speed
CONVENTION	IQUANT	1	Current Convention
ICHRANGE	IQUANT	2	Ich Range
ICHRANGEMODE	TOGGLE	F	Ich Auto Range
ICHOFFSETENABLE	TOGGLE	F	Ich Offset Enable
ICHOFFSET	QUANT	0	Ich Offset (V)
ICHFILTER	IQUANT	1	Ich Filter
VCHRANGE	IQUANT	2	Vch Range
VCHRANGEMODE	TOGGLE	F	Vch Auto Range
VCHOFFSETENABLE	TOGGLE	F	Vch Offset Enable
VCHOFFSET	QUANT	0	Vch Offset (V)
VCHFILTER	IQUANT	1	Vch Filter
ACHRANGE	IQUANT	2	Ach Range
ACHOFFSETENABLE	TOGGLE	F	Ach Offset Enable
ACHOFFSET	QUANT	0	Ach Offset (V)
ACHFILTER	IQUANT	1	Ach Filter
IERANGELOWERLIMIT	IQUANT	1	I/E Range Lower Limit
IERANGEMODE	TOGGLE	F	I/E AutoRange
IERANGE	IQUANT	4	I/E Range
POSFEEDENABLE	TOGGLE	F	Positive Feedback IR Comp
POSFEEDRESISTANCE	QUANT	0	Positive Feedback Resistance (ohm)
ACHSELECT	IQUANT	4	Ach Select
SENSECABLEID	IQUANT	7	Sense Cable ID
PWRCABLEID	IQUANT	7	Power Cable ID
DCCALDATE	LABEL	12/18/2023	DC Calibration Date
ACCALDATE	LABEL	12/18/2023	AC Calibration Date
THERMOSELECT	IQUANT	1	Thermo Select
FRAMEWORKVERSION	LABEL	7.8.4	Framework Version
INSTRUMENTVERSION	LABEL	4.42	Instrument Version
CURVE1	TABLE
	Pt	T	Vf	Im	Vu	Sig	Ach	IERange	Over	Temp
	#	s	V vs. Ref.	A	V	V	V	#	bits	deg C
	0	0.0002	3.44670E-001	3.17889E-011	0.00000E+000	3.44650E-001	8.00223E-005	4	..........a	-327.66
	3	0.0008	3.14670E-001	-1.08217E-010	0.00000E+000	3.14650E-001	8.00223E-005	4	..........a	-327.66
	6	0.0014	2.84570E-001	-2.62222E-010	0.00000E+000	2.84650E-001	8.00223E-005	4	..........a	-327.66
	9	0.002	2.54770E-001	-4.30229E-010	0.00000E+000	2.54650E-001	8.00223E-005	4	..........a	-327.66
	12	0.0026	2.24570E-001	-6.14236E-010	0.00000E+000	2.24650E-001	8.00223E-005	4	..........a	-327.66
	15	0.0032	1.94870E-001	-8.20244E-010	0.00000E+000	1.94650E-001	8.00223E-005	4	..........a	-327.66
	18	0.0038	1.64670E-001	-1.03825E-009	0.00000E+000	1.64650E-001	8.00223E-005	4	..........a	-327.66
	21	0.0044	1.34570E-001	-1.28026E-009	0.00000E+000	1.34650E-001	8.00223E-005	4	..........a	-327.66
	24	0.005	1.04770E-001	-1.54227E-009	0.00000E+000	1.04650E-001	8.00223E-005	4	..........a	-327.66
	27	0.0056	7.47695E-002	-1.83028E-009	0.00000E+000	7.46500E-002	8.00223E-005	4	..........a	-327.66
	30	0.0062	4.46695E-002	-2.14629E-009	0.00000E+000	4.46500E-002	8.00223E-005	4	..........a	-327.66
	33	0.0068	1.44695E-002	-2.48531E-009	0.00000E+000	1.46500E-002	8.00223E-005	4	..........a	-327.66
	36	0.0074	-1.53305E-002	-2.85032E-009	0.00000E+000	-1.53500E-002	8.00223E-005	4	..........a	-327.66
	39	0.008	-4.52305E-002	-3.23734E-009	0.00000E+000	-4.53500E-002	8.00223E-005	4	..........a	-327.66
	42	0.0086	-7.52305E-002	-3.64735E-009	0.00000E+000	-7.53500E-002	8.00223E-005	4	..........a	-327.66
	45	0.0092	-1.05330E-001	-4.08637E-009	0.00000E+000	-1.05350E-001	8.00223E-005	4	..........a	-327.66
	48	0.0098	-1.35330E-001	-4.54839E-009	0.00000E+000	-1.35350E-001	8.00223E-005	4	..........a	-327.66
	51	0.0104	-1.65230E-001	-5.02041E-009	0.00000E+000	-1.65350E-001	8.00223E-005	4	..........a	-327.66
	54	0.011	-1.95330E-001	-5.50342E-009	0.00000E+000	-1.95350E-001	8.00223E-005	4	..........a	-327.66
	57	0.0116	-2.25230E-001	-6.01044E-009	0.00000E+000	-2.25350E-001	8.00223E-005	4	..........a	-327.66
	60	0.0122	-2.55230E-001	-6.52046E-009	0.00000E+000	-2.55350E-001	8.00223E-005	4	..........a	-327.66
	63	0.0128	-2.85130E-001	-7.03448E-009	0.00000E+000	-2.85350E-001	8.00223E-005	4	..........a	-327.66
	66	0.0134	-3.15330E-001	-7.55950E-009	0.00000E+000	-3.15350E-001	8.00223E-005	4	..........a	-327.66
	69	0.014	-3.45330E-001	-8.09852E-009	0.00000E+000	-3.45350E-001	8.00223E-005	4	..........a	-327.66
	72	0.0146	-3.75230E-001	-8.63454E-009	0.00000E+000	-3.75350E-001	8.00223E-005	4	..........a	-327.66
	75	0.0152	-4.05130E-001	-9.17457E-009	0.00000E+000	-4.05350E-001	8.00223E-005	4	..........a	-327.66
	78	0.0158	-4.35330E-001	-9.72359E-009	0.00000E+000	-4.35350E-001	-3.19978E-004	4	..........a	-327.66
	81	0.0164	-4.65230E-001	-1.02806E-008	0.00000E+000	-4.65350E-001	8.00223E-005	4	..........a	-327.66
	84	0.017	-4.95130E-001	-1.08436E-008	0.00000E+000	-4.95350E-001	8.00223E-005	4	..........a	-327.66
	87	0.0176	-5.25230E-001	-1.14187E-008	0.00000E+000	-5.25350E-001	8.00223E-005	4	..........a	-327.66
	90	0.0182	-5.55331E-001	-1.20067E-008	0.00000E+000	-5.55350E-001	8.00223E-005	4	..........a	-327.66
	93	0.0188	-5.85230E-001	-1.26227E-008	0.00000E+000	-5.85350E-001	8.00223E-005	4	..........a	-327.66
	96	0.0194	-5.75031E-001	-1.29417E-008	0.00000E+000	-5.75350E-001	8.00223E-005	4	..........a	-327.66
	99	0.02	-5.45130E-001	-1.29677E-008	0.00000E+000	-5.45350E-001	8.00223E-005	4	..........a	-327.66
	102	0.0206	-5.15130E-001	-1.29027E-008	0.00000E+000	-5.15350E-001	8.00223E-005	4	..........a	-327.66
	105	0.0212	-4.85230E-001	-1.27847E-008	0.00000E+000	-4.85350E-001	8.00223E-005	4	..........a	-327.66
	108	0.0218	-4.55130E-001	-1.26307E-008	0.00000E+000	-4.55350E-001	8.00223E-005	4	..........a	-327.66
	111	0.0224	-4.25130E-001	-1.24507E-008	0.00000E+000	-4.25350E-001	8.00223E-005	4	..........a	-327.66
	114	0.023	-3.95430E-001	-1.22417E-008	0.00000E+000	-3.95350E-001	8.00223E-005	4	..........a	-327.66
	117	0.0236	-3.65230E-001	-1.20227E-008	0.00000E+000	-3.65350E-001	8.00223E-005	4	..........a	-327.66
	120	0.0242	-3.35330E-001	-1.17887E-008	0.00000E+000	-3.35350E-001	8.00223E-005	4	..........a	-327.66
	123	0.0248	-3.05330E-001	-1.15547E-008	0.00000E+000	-3.05350E-001	8.00223E-005	4	..........a	-327.66
	126	0.0254	-2.75330E-001	-1.12936E-008	0.00000E+000	-2.75350E-001	8.00223E-005	4	..........a	-327.66
	129	0.026	-2.45230E-001	-1.10316E-008	0.00000E+000	-2.45350E-001	8.00223E-005	4	..........a	-327.66
	132	0.0266	-2.15130E-001	-1.07566E-008	0.00000E+000	-2.15350E-001	-3.19978E-004	4	..........a	-327.66
	135	0.0272	-1.85230E-001	-1.04816E-008	0.00000E+000	-1.85350E-001	8.00223E-005	4	..........a	-327.66
	138	0.0278	-1.55430E-001	-1.01966E-008	0.00000E+000	-1.55350E-001	8.00223E-005	4	..........a	-327.66
	141	0.0284	-1.25230E-001	-9.90259E-009	0.00000E+000	-1.25350E-001	8.00223E-005	4	..........a	-327.66
	144	0.029	-9.52305E-002	-9.60658E-009	0.00000E+000	-9.53500E-002	8.00223E-005	4	..........a	-327.66
	147	0.0296	-6.51305E-002	-9.30257E-009	0.00000E+000	-6.53500E-002	8.00223E-005	4	..........a	-327.66
	150	0.0302	-3.51305E-002	-8.99656E-009	0.00000E+000	-3.53500E-002	8.00223E-005	4	..........a	-327.66
	153	0.0308	-5.23048E-003	-8.67055E-009	0.00000E+000	-5.34999E-003	8.00223E-005	4	..........a	-327.66
	156	0.0314	2.50695E-002	-8.34953E-009	0.00000E+000	2.46500E-002	8.00223E-005	4	..........a	-327.66
	159	0.032	5.46195E-002	-8.01852E-009	0.00000E+000	5.46500E-002	8.00223E-005	4	..........a	-327.66
	162	0.0326	8.45695E-002	-7.67751E-009	0.00000E+000	8.46500E-002	8.00223E-005	4	..........a	-327.66
	165	0.0332	1.14770E-001	-7.33249E-009	0.00000E+000	1.14650E-001	8.00223E-005	4	..........a	-327.66
	168	0.0338	1.44770E-001	-6.97848E-009	0.00000E+000	1.44650E-001	8.00223E-005	4	..........a	-327.66
	171	0.0344	1.74770E-001	-6.61647E-009	0.00000E+000	1.74650E-001	8.00223E-005	4	..........a	-327.66
	174	0.035	2.04770E-001	-6.23945E-009	0.00000E+000	2.04650E-001	8.00223E-005	4	..........a	-327.66
	177	0.0356	2.34620E-001	-5.86044E-009	0.00000E+000	2.34650E-001	8.00223E-005	4	..........a	-327.66
	180	0.0362	2.64770E-001	-5.46042E-009	0.00000E+000	2.64650E-001	8.00223E-005	4	..........a	-327.66
	183	0.0368	2.94770E-001	-5.06041E-009	0.00000E+000	2.94650E-001	8.00223E-005	4	..........a	-327.66
	186	0.0374	3.24570E-001	-4.63439E-009	0.00000E+000	3.24650E-001	8.00223E-005	4	..........a	-327.66
	189	0.038	3.54770E-001	-4.21037E-009	0.00000E+000	3.54650E-001	8.00223E-005	4	..........a	-327.66
	192	0.0386	3.84670E-001	-3.76236E-009	0.00000E+000	3.84650E-001	8.00223E-005	4	..........a	-327.66
	195	0.0392	4.14620E-001	-3.31434E-009	0.00000E+000	4.14650E-001	8.00223E-005	4	..........a	-327.66
	198	0.0398	4.44670E-001	-2.85232E-009	0.00000E+000	4.44650E-001	8.00223E-005	4	..........a	-327.66
	201	0.0404	4.74770E-001	-2.37230E-009	0.00000E+000	4.74650E-001	8.00223E-005	4	..........a	-327.66
	204	0.041	5.04470E-001	-1.87428E-009	0.00000E+000	5.04650E-001	8.00223E-005	4	..........a	-327.66
	207	0.0416	5.34669E-001	-1.36426E-009	0.00000E+000	5.34650E-001	8.00223E-005	4	..........a	-327.66
	210	0.0422	5.64669E-001	-8.30244E-010	0.00000E+000	5.64650E-001	8.00223E-005	4	..........a	-327.66
	213	0.0428	5.94769E-001	-2.74223E-010	0.00000E+000	5.94650E-001	8.00223E-005	4	..........a	-327.66
	216	0.0434	6.24569E-001	3.06799E-010	0.00000E+000	6.24650E-001	8.00223E-005	4	..........a	-327.66
	219	0.044	6.54669E-001	9.14823E-010	0.00000E+000	6.54650E-001	8.00223E-005	4	..........a	-327.66
	222	0.0446	6.84469E-001	1.54885E-009	0.00000E+000	6.84650E-001	8.00223E-005	4	..........a	-327.66
	225	0.0452	7.14669E-001	2.21787E-009	0.00000E+000	7.14650E-001	8.00223E-005	4	..........a	-327.66
	228	0.0458	7.44469E-001	2.92990E-009	0.00000E+000	7.44650E-001	8.00223E-005	4	..........a	-327.66
	231	0.0464	7.74569E-001	3.67593E-009	0.00000E+000	7.74650E-001	8.00223E-005	4	..........a	-327.66
	233	0.0468	7.94669E-001	4.20995E-009	0.00000E+000	7.94650E-001	8.00223E-005	4	..........a	-327.66
CURVE2	TABLE
	Pt	T	Vf	Im	Vu	Sig	Ach	IERange	Over	Temp
	#	s	V vs. Ref.	A	V	V	V	#	bits	deg C
	234	0.047	7.89869E-001	4.37796E-009	0.00000E+000	7.90000E-001	-3.19978E-004	4	..........a	-327.66
	237	0.0476	7.59969E-001	4.61296E-009	0.00000E+000	7.60000E-001	8.00223E-005	4	..........a	-327.66
	240	0.0482	7.29970E-001	4.66497E-009	0.00000E+000	7.30000E-001	8.00223E-005	4	..........a	-327.66
	243	0.0488	6.99769E-001	4.63097E-009	0.00000E+000	7.00000E-001	8.00223E-005	4	..........a	-327.66
	246	0.0494	6.69969E-001	4.52396E-009	0.00000E+000	6.70000E-001	8.00223E-005	4	..........a	-327.66
	249	0.05	6.39870E-001	4.38196E-009	0.00000E+000	6.40000E-001	8.00223E-005	4	..........a	-327.66
	252	0.0506	6.09869E-001	4.21595E-009	0.00000E+000	6.10000E-001	8.00223E-005	4	..........a	-327.66
	255	0.0512	5.79669E-001	4.01994E-009	0.00000E+000	5.80000E-001	8.00223E-005	4	..........a	-327.66
	258	0.0518	5.49869E-001	3.80593E-009	0.00000E+000	5.50000E-001	8.00223E-005	4	..........a	-327.66
	261	0.0524	5.19969E-001	3.58993E-009	0.00000E+000	5.20000E-001	8.00223E-005	4	..........a	-327.66
	264	0.053	4.89970E-001	3.35092E-009	0.00000E+000	4.90000E-001	8.00223E-005	4	..........a	-327.66
	267	0.0536	4.59870E-001	3.09291E-009	0.00000E+000	4.60000E-001	8.00223E-005	4	..........a	-327.66
	270	0.0542	4.29770E-001	2.82390E-009	0.00000E+000	4.30000E-001	-3.19978E-004	4	..........a	-327.66
	273	0.0548	4.00170E-001	2.53689E-009	0.00000E+000	4.00000E-001	8.00223E-005	4	..........a	-327.66
	276	0.0554	3.69970E-001	2.24087E-009	0.00000E+000	3.70000E-001	8.00223E-005	4	..........a	-327.66
	279	0.056	3.39970E-001	1.91786E-009	0.00000E+000	3.40000E-001	8.00223E-005	4	..........a	-327.66
	282	0.0566	3.09970E-001	1.58185E-009	0.00000E+000	3.10000E-001	8.00223E-005	4	..........a	-327.66
	285	0.0572	2.79970E-001	1.23484E-009	0.00000E+000	2.80000E-001	8.00223E-005	4	..........a	-327.66
	288	0.0578	2.49970E-001	8.58821E-010	0.00000E+000	2.50000E-001	8.00223E-005	4	..........a	-327.66
	291	0.0584	2.19970E-001	4.59805E-010	0.00000E+000	2.20000E-001	8.00223E-005	4	..........a	-327.66
	294	0.059	1.90070E-001	4.77895E-011	0.00000E+000	1.90000E-001	8.00223E-005	4	..........a	-327.66
	297	0.0596	1.60070E-001	-3.86227E-010	0.00000E+000	1.60000E-001	8.00223E-005	4	..........a	-327.66
	300	0.0602	1.30070E-001	-8.29244E-010	0.00000E+000	1.30000E-001	8.00223E-005	4	..........a	-327.66
	303	0.0608	9.99695E-002	-1.29026E-009	0.00000E+000	1.00000E-001	8.00223E-005	4	..........a	-327.66
	306	0.0614	6.98695E-002	-1.75828E-009	0.00000E+000	7.00000E-002	8.00223E-005	4	..........a	-327.66
	309	0.062	4.00695E-002	-2.22830E-009	0.00000E+000	4.00000E-002	8.00223E-005	4	..........a	-327.66
	312	0.0626	1.00695E-002	-2.70332E-009	0.00000E+000	1.00000E-002	8.00223E-005	4	..........a	-327.66
	315	0.0632	-1.99305E-002	-3.17233E-009	0.00000E+000	-2.00000E-002	8.00223E-005	4	..........a	-327.66
	318	0.0638	-4.98305E-002	-3.63135E-009	0.00000E+000	-5.00000E-002	8.00223E-005	4	..........a	-327.66
	321	0.0644	-7.98305E-002	-4.08737E-009	0.00000E+000	-8.00000E-002	8.00223E-005	4	..........a	-327.66
	324	0.065	-1.10130E-001	-4.53039E-009	0.00000E+000	-1.10000E-001	8.00223E-005	4	..........a	-327.66
	327	0.0656	-1.39730E-001	-4.95940E-009	0.00000E+000	-1.40000E-001	8.00223E-005	4	..........a	-327.66
	330	0.0662	-1.69930E-001	-5.38742E-009	0.00000E+000	-1.70000E-001	8.00223E-005	4	..........a	-327.66
	333	0.0668	-1.99930E-001	-5.79944E-009	0.00000E+000	-2.00000E-001	8.00223E-005	4	..........a	-327.66
	336	0.0674	-2.29830E-001	-6.21245E-009	0.00000E+000	-2.30000E-001	8.00223E-005	4	..........a	-327.66
	339	0.068	-2.59730E-001	-6.61047E-009	0.00000E+000	-2.60000E-001	8.00223E-005	4	..........a	-327.66
	342	0.0686	-2.90030E-001	-7.00748E-009	0.00000E+000	-2.90000E-001	8.00223E-005	4	..........a	-327.66
	345	0.0692	-3.19930E-001	-7.39750E-009	0.00000E+000	-3.20000E-001	8.00223E-005	4	..........a	-327.66
	348	0.0698	-3.49930E-001	-7.78851E-009	0.00000E+000	-3.50000E-001	8.00223E-005	4	..........a	-327.66
	351	0.0704	-3.79730E-001	-8.18053E-009	0.00000E+000	-3.80000E-001	8.00223E-005	4	..........a	-327.66
[...]
	2636	0.5274	-3.69930E-001	-7.37250E-009	0.00000E+000	-3.70000E-001	8.00223E-005	4	..........a	-327.66
	2639	0.528	-3.39830E-001	-7.15249E-009	0.00000E+000	-3.40000E-001	8.00223E-005	4	..........a	-327.66
	2642	0.5286	-3.10130E-001	-6.93048E-009	0.00000E+000	-3.10000E-001	8.00223E-005	4	..........a	-327.66
	2645	0.5292	-2.79830E-001	-6.69447E-009	0.00000E+000	-2.80000E-001	8.00223E-005	4	..........a	-327.66
	2648	0.5298	-2.49930E-001	-6.45646E-009	0.00000E+000	-2.50000E-001	8.00223E-005	4	..........a	-327.66
	2651	0.5304	-2.19630E-001	-6.20845E-009	0.00000E+000	-2.20000E-001	8.00223E-005	4	..........a	-327.66
	2654	0.531	-1.90330E-001	-5.95644E-009	0.00000E+000	-1.90000E-001	8.00223E-005	4	..........a	-327.66
	2657	0.5316	-1.59930E-001	-5.69243E-009	0.00000E+000	-1.60000E-001	8.00223E-005	4	..........a	-327.66
	2660	0.5322	-1.29930E-001	-5.42842E-009	0.00000E+000	-1.30000E-001	8.00223E-005	4	..........a	-327.66
	2663	0.5328	-9.99305E-002	-5.15641E-009	0.00000E+000	-1.00000E-001	8.00223E-005	4	..........a	-327.66
	2666	0.5334	-6.99305E-002	-4.87940E-009	0.00000E+000	-7.00000E-002	8.00223E-005	4	..........a	-327.66
	2669	0.534	-3.99305E-002	-4.59639E-009	0.00000E+000	-4.00000E-002	8.00223E-005	4	..........a	-327.66
	2672	0.5346	-9.93048E-003	-4.31338E-009	0.00000E+000	-1.00000E-002	8.00223E-005	4	..........a	-327.66
	2675	0.5352	2.02695E-002	-4.01637E-009	0.00000E+000	2.00000E-002	8.00223E-005	4	..........a	-327.66
	2678	0.5358	4.99695E-002	-3.71536E-009	0.00000E+000	5.00000E-002	8.00223E-005	4	..........a	-327.66
	2681	0.5364	8.00695E-002	-3.41234E-009	0.00000E+000	8.00000E-002	8.00223E-005	4	..........a	-327.66
	2684	0.537	1.09970E-001	-3.10033E-009	0.00000E+000	1.10000E-001	8.00223E-005	4	..........a	-327.66
	2687	0.5376	1.40070E-001	-2.76632E-009	0.00000E+000	1.40000E-001	8.00223E-005	4	..........a	-327.66
	2690	0.5382	1.70070E-001	-2.43431E-009	0.00000E+000	1.70000E-001	8.00223E-005	4	..........a	-327.66
	2693	0.5388	2.00070E-001	-2.08729E-009	0.00000E+000	2.00000E-001	8.00223E-005	4	..........a	-327.66
	2696	0.5394	2.29970E-001	-1.72928E-009	0.00000E+000	2.30000E-001	8.00223E-005	4	..........a	-327.66
	2699	0.54	2.60170E-001	-1.35026E-009	0.00000E+000	2.60000E-001	-2.19978E-004	4	..........a	-327.66
	2702	0.5406	2.89970E-001	-9.68250E-010	0.00000E+000	2.90000E-001	8.00223E-005	4	..........a	-327.66
	2705	0.5412	3.20070E-001	-5.64234E-010	0.00000E+000	3.20000E-001	8.00223E-005	4	..........a	-327.66
	2708	0.5418	3.49970E-001	-1.46218E-010	0.00000E+000	3.50000E-001	8.00223E-005	4	..........a	-327.66
	2711	0.5424	3.80020E-001	2.86799E-010	0.00000E+000	3.80000E-001	8.00223E-005	4	..........a	-327.66
	2714	0.543	4.10070E-001	7.27816E-010	0.00000E+000	4.10000E-001	8.00223E-005	4	..........a	-327.66
	2717	0.5436	4.39970E-001	1.18883E-009	0.00000E+000	4.40000E-001	8.00223E-005	4	..........a	-327.66
	2720	0.5442	4.69970E-001	1.66285E-009	0.00000E+000	4.70000E-001	8.00223E-005	4	..........a	-327.66
	2723	0.5448	4.99970E-001	2.15187E-009	0.00000E+000	5.00000E-001	8.00223E-005	4	..........a	-327.66
	2726	0.5454	5.29970E-001	2.65989E-009	0.00000E+000	5.30000E-001	8.00223E-005	4	..........a	-327.66
	2729	0.546	5.59869E-001	3.19391E-009	0.00000E+000	5.60000E-001	8.00223E-005	4	..........a	-327.66
	2732	0.5466	5.90069E-001	3.74893E-009	0.00000E+000	5.90000E-001	8.00223E-005	4	..........a	-327.66
	2735	0.5472	6.19869E-001	4.32595E-009	0.00000E+000	6.20000E-001	8.00223E-005	4	..........a	-327.66
	2738	0.5478	6.49969E-001	4.92598E-009	0.00000E+000	6.50000E-001	8.00223E-005	4	..........a	-327.66
	2741	0.5484	6.79669E-001	5.54900E-009	0.00000E+000	6.80000E-001	8.00223E-005	4	..........a	-327.66
	2744	0.549	7.09870E-001	6.20803E-009	0.00000E+000	7.10000E-001	8.00223E-005	4	..........a	-327.66
	2747	0.5496	7.39769E-001	6.90305E-009	0.00000E+000	7.40000E-001	-3.19978E-004	4	..........a	-327.66
	2750	0.5502	7.69870E-001	7.63408E-009	0.00000E+000	7.70000E-001	8.00223E-005	4	..........a	-327.66
	2753	0.5508	7.99869E-001	8.40811E-009	0.00000E+000	8.00000E-001	8.00223E-005	4	..........a	-327.66
CURVE11	TABLE
	Pt	T	Vf	Im	Vu	Sig	Ach	IERange	Over	Temp
	#	s	V vs. Ref.	A	V	V	V	#	bits	deg C
	2754	0.551	7.89970E-001	8.54612E-009	0.00000E+000	7.90000E-001	8.00223E-005	4	..........a	-327.66
	2755	0.5512	7.79869E-001	8.64112E-009	0.00000E+000	7.80000E-001	8.00223E-005	4	..........a	-327.66
	2756	0.5514	7.69870E-001	8.70212E-009	0.00000E+000	7.70000E-001	-3.19978E-004	4	..........a	-327.66
	2757	0.5516	7.59869E-001	8.74512E-009	0.00000E+000	7.60000E-001	8.00223E-005	4	..........a	-327.66
	2758	0.5518	7.50069E-001	8.75812E-009	0.00000E+000	7.50000E-001	8.00223E-005	4	..........a	-327.66
	2759	0.552	7.39969E-001	8.76612E-009	0.00000E+000	7.40000E-001	8.00223E-005	4	..........a	-327.66
	2760	0.5522	7.29970E-001	8.76212E-009	0.00000E+000	7.30000E-001	8.00223E-005	4	..........a	-327.66
	2761	0.5524	7.19769E-001	8.74912E-009	0.00000E+000	7.20000E-001	8.00223E-005	4	..........a	-327.66
	2762	0.5526	7.09969E-001	8.72212E-009	0.00000E+000	7.10000E-001	8.00223E-005	4	..........a	-327.66
	2763	0.5528	6.99769E-001	8.69612E-009	0.00000E+000	7.00000E-001	-3.19978E-004	4	..........a	-327.66
	2764	0.553	6.89770E-001	8.65712E-009	0.00000E+000	6.90000E-001	8.00223E-005	4	..........a	-327.66
	2765	0.5532	6.79669E-001	8.62012E-009	0.00000E+000	6.80000E-001	8.00223E-005	4	..........a	-327.66
	2766	0.5534	6.69869E-001	8.56812E-009	0.00000E+000	6.70000E-001	-2.19978E-004	4	..........a	-327.66
	2767	0.5536	6.59920E-001	8.51311E-009	0.00000E+000	6.60000E-001	8.00223E-005	4	..........a	-327.66
	2768	0.5538	6.49920E-001	8.46211E-009	0.00000E+000	6.50000E-001	8.00223E-005	4	..........a	-327.66
	2769	0.554	6.39870E-001	8.39611E-009	0.00000E+000	6.40000E-001	-3.19978E-004	4	..........a	-327.66
	2770	0.5542	6.29869E-001	8.33611E-009	0.00000E+000	6.30000E-001	8.00223E-005	4	..........a	-327.66
	2771	0.5544	6.19969E-001	8.26611E-009	0.00000E+000	6.20000E-001	8.00223E-005	4	..........a	-327.66
	2772	0.5546	6.09769E-001	8.19210E-009	0.00000E+000	6.10000E-001	8.00223E-005	4	..........a	-327.66
	2773	0.5548	5.99970E-001	8.12410E-009	0.00000E+000	6.00000E-001	8.00223E-005	4	..........a	-327.66
	2774	0.555	5.90069E-001	8.05310E-009	0.00000E+000	5.90000E-001	8.00223E-005	4	..........a	-327.66
	2775	0.5552	5.79769E-001	7.97309E-009	0.00000E+000	5.80000E-001	8.00223E-005	4	..........a	-327.66
	2776	0.5554	5.69969E-001	7.89809E-009	0.00000E+000	5.70000E-001	8.00223E-005	4	..........a	-327.66
	2777	0.5556	5.59969E-001	7.81809E-009	0.00000E+000	5.60000E-001	8.00223E-005	4	..........a	-327.66
	2778	0.5558	5.50020E-001	7.73208E-009	0.00000E+000	5.50000E-001	8.00223E-005	4	..........a	-327.66
	2779	0.556	5.40069E-001	7.64408E-009	0.00000E+000	5.40000E-001	8.00223E-005	4	..........a	-327.66
	2780	0.5562	5.30069E-001	7.56008E-009	0.00000E+000	5.30000E-001	8.00223E-005	4	..........a	-327.66
	2781	0.5564	5.19870E-001	7.46907E-009	0.00000E+000	5.20000E-001	8.00223E-005	4	..........a	-327.66
	2782	0.5566	5.09969E-001	7.37607E-009	0.00000E+000	5.10000E-001	8.00223E-005	4	..........a	-327.66
	2783	0.5568	4.99870E-001	7.28807E-009	0.00000E+000	5.00000E-001	8.00223E-005	4	..........a	-327.66
	2784	0.557	4.90070E-001	7.19306E-009	0.00000E+000	4.90000E-001	8.00223E-005	4	..........a	-327.66
	2785	0.5572	4.79870E-001	7.09806E-009	0.00000E+000	4.80000E-001	8.00223E-005	4	..........a	-327.66
	2786	0.5574	4.69870E-001	6.99506E-009	0.00000E+000	4.70000E-001	8.00223E-005	4	..........a	-327.66
	2787	0.5576	4.60070E-001	6.89705E-009	0.00000E+000	4.60000E-001	-3.19978E-004	4	..........a	-327.66
	2788	0.5578	4.49670E-001	6.79505E-009	0.00000E+000	4.50000E-001	8.00223E-005	4	..........a	-327.66
	2789	0.558	4.39870E-001	6.69204E-009	0.00000E+000	4.40000E-001	8.00223E-005	4	..........a	-327.66
	2790	0.5582	4.29970E-001	6.58804E-009	0.00000E+000	4.30000E-001	-4.19978E-004	4	..........a	-327.66
	2791	0.5584	4.20070E-001	6.48104E-009	0.00000E+000	4.20000E-001	8.00223E-005	4	..........a	-327.66
	2792	0.5586	4.09870E-001	6.36603E-009	0.00000E+000	4.10000E-001	8.00223E-005	4	..........a	-327.66
	2793	0.5588	3.99970E-001	6.26203E-009	0.00000E+000	4.00000E-001	8.00223E-005	4	..........a	-327.66
	2794	0.559	3.90070E-001	6.14902E-009	0.00000E+000	3.90000E-001	-3.19978E-004	4	..........a	-327.66
	2795	0.5592	3.80170E-001	6.03602E-009	0.00000E+000	3.80000E-001	8.00223E-005	4	..........a	-327.66
	2796	0.5594	3.69870E-001	5.91601E-009	0.00000E+000	3.70000E-001	8.00223E-005	4	..........a	-327.66
	2797	0.5596	3.59770E-001	5.79201E-009	0.00000E+000	3.60000E-001	8.00223E-005	4	..........a	-327.66
	2798	0.5598	3.50070E-001	5.67401E-009	0.00000E+000	3.50000E-001	8.00223E-005	4	..........a	-327.66