File: data/raw/batch_data/20240321_ZY_GM0016_HL03_E13_CV50.DTA
EXPLAIN
TAG	CV
TITLE	LABEL	Cyclic Voltammetry	Test &Identifier
DATE	LABEL	3/21/2024	Date
TIME	LABEL	19:23:37	Time
NOTES	NOTES	1	&Notes...

PSTAT	PSTAT	REF600P-43058	Potentiostat
VINIT	POTEN	0.00000E+000	T	Initial &E (V)
VLIMIT1	POTEN	-6.00000E-001	F	Scan Limit &1 (V)
VLIMIT2	POTEN	8.00000E-001	F	Scan Limit &2 (V)
VFINAL	POTEN	0.00000E+000	T	Final &E (V)
SCANRATE	QUANT	4.99999E+001	&Scan Rate (mV/s)
STEPSIZE	QUANT	1.00000E+001	St&ep Size (mV)
CYCLES	IQUANT	4	C&ycles (#)
IMODE	SELECTOR	1	I/E Range &Mode
IRANGE	QUANT	1.00000E-005	&Max Current (mA)
AREA	QUANT	1.00000E+000	Electrode &Area (cm^2)
ELECTRODETYPE	SELECTOR	0	Electrode Type
STRIPPING	TOGGLE	F	Used for Stripping
POLARITY	TOGGLE	F	Signal Polarity
CONDIT	TWOPARAM	F	1.50000E+001	0.00000E+000	Conditionin&g	Time(s)	E(V)
DELAY	TWOPARAM	T	1.00000E+001	0.00000E+000	Init. De&lay	Time(s)	Stab.(mV/s)
EQDELAY	QUANT	1.00000E+001	Equil. &Time (s)
IRCOMP	SELECTOR	0	IRCom&p
PFCOR	QUANT	5.00000E+001	PF Corr. (ohm)
SAMPLINGMODE	SELECTOR	1	Sampling &Mode
OCVCURVE	TABLE	39
	Pt	T	Vf	Vm	Ach	Over	Temp
	#	s	V vs. Ref.	V	V	bits	deg C
	0	0.258333	1.84366E-001	1.84366E-001	2.27222E-004	..........a	-327.66
	1	0.516667	1.84374E-001	1.84767E-001	2.26756E-004	..........a	-327.66
	2	0.775	1.84423E-001	1.85266E-001	2.35489E-004	..........a	-327.66
	3	1.03333	1.84571E-001	1.85798E-001	2.37956E-004	..........a	-327.66
	4	1.29167	1.84856E-001	1.86381E-001	2.36689E-004	..........a	-327.66
	5	1.55	1.85271E-001	1.86961E-001	2.38089E-004	..........a	-327.66
	6	1.80833	1.85776E-001	1.87561E-001	2.33889E-004	..........a	-327.66
	7	2.06667	1.86334E-001	1.88159E-001	2.19822E-004	..........a	-327.66
	8	2.325	1.86918E-001	1.88775E-001	2.42289E-004	..........a	-327.66
	9	2.58333	1.87515E-001	1.89377E-001	2.32956E-004	..........a	-327.66
	10	2.84167	1.88117E-001	1.89989E-001	2.20956E-004	..........a	-327.66
	11	3.1	1.88724E-001	1.90591E-001	2.35489E-004	..........a	-327.66
	12	3.35833	1.89331E-001	1.91207E-001	2.31089E-004	..........a	-327.66
	13	3.61667	1.89940E-001	1.91808E-001	2.27222E-004	..........a	-327.66
	14	3.875	1.90548E-001	1.92416E-001	2.28156E-004	..........a	-327.66
	15	4.13333	1.91155E-001	1.93025E-001	2.30022E-004	..........a	-327.66
	16	4.39167	1.91762E-001	1.93622E-001	2.30556E-004	..........a	-327.66
	17	4.65	1.92368E-001	1.94212E-001	2.33422E-004	..........a	-327.66
	18	4.90833	1.92971E-001	1.94809E-001	2.15089E-004	..........a	-327.66
	19	5.16667	1.93571E-001	1.95404E-001	2.23956E-004	..........a	-327.66
	20	5.425	1.94168E-001	1.95995E-001	2.40489E-004	..........a	-327.66
	21	5.68333	1.94762E-001	1.96578E-001	2.28222E-004	..........a	-327.66
	22	5.94167	1.95355E-001	1.97172E-001	2.41756E-004	..........a	-327.66
	23	6.2	1.95946E-001	1.97764E-001	2.27489E-004	..........a	-327.66
	24	6.45833	1.96536E-001	1.98344E-001	2.31889E-004	..........a	-327.66
	25	6.71667	1.97125E-001	1.98920E-001	2.48156E-004	..........a	-327.66
	26	6.975	1.97712E-001	1.99503E-001	2.35156E-004	..........a	-327.66
	27	7.23333	1.98296E-001	2.00074E-001	2.30089E-004	..........a	-327.66
	28	7.49167	1.98876E-001	2.00645E-001	2.15356E-004	..........a	-327.66
	29	7.75	1.99454E-001	2.01215E-001	2.38289E-004	..........a	-327.66
	30	8.00833	2.00028E-001	2.01786E-001	2.32889E-004	..........a	-327.66
	31	8.26667	2.00600E-001	2.02349E-001	2.17756E-004	..........a	-327.66
	32	8.525	2.01170E-001	2.02917E-001	2.31089E-004	..........a	-327.66
	33	8.78333	2.01739E-001	2.03473E-001	2.31756E-004	..........a	-327.66
	34	9.04167	2.02305E-001	2.04036E-001	2.52489E-004	..........a	-327.66
	35	9.3	2.02869E-001	2.04594E-001	2.37556E-004	..........a	-327.66
	36	9.5583	2.03430E-001	2.05140E-001	2.35622E-004	..........a	-327.66
	37	9.8167	2.03989E-001	2.05691E-001	2.27222E-004	..........a	-327.66
	38	10.075	2.04545E-001	2.06224E-001	2.32289E-004	..........a	-327.66
EOC	QUANT	0.2045449	Open Circuit (V)
PSTATMODEL	IQUANT	7	Pstat Model
PSTATSECTION	LABEL	REF600P-43058	Pstat Section
PSTATSERIALNO	LABEL	43058	Pstat Serial Number
CTRLMODE	IQUANT	1	Control Mode
ELECTROMETER	IQUANT	0	RE=0 or CS=1
IESTAB	IQUANT	2	I/E Stability
CASPEED	IQUANT	4	Control Amp Speed
CONVENTION	IQUANT	1	Current Convention
ICHRANGE	IQUANT	2	Ich Range
ICHRANGEMODE	TOGGLE	F	Ich Auto Range
ICHOFFSETENABLE	TOGGLE	F	Ich Offset Enable
ICHOFFSET	QUANT	0	Ich Offset (V)
ICHFILTER	IQUANT	2	Ich Filter
VCHRANGE	IQUANT	2	Vch Range
VCHRANGEMODE	TOGGLE	F	Vch Auto Range
VCHOFFSETENABLE	TOGGLE	F	Vch Offset Enable
VCHOFFSET	QUANT	0	Vch Offset (V)
VCHFILTER	IQUANT	2	Vch Filter
ACHRANGE	IQUANT	2	Ach Range
ACHOFFSETENABLE	TOGGLE	F	Ach Offset Enable
ACHOFFSET	QUANT	0	Ach Offset (V)
ACHFILTER	IQUANT	1	Ach Filter
IERANGELOWERLIMIT	IQUANT	1	I/E Range Lower Limit
IERANGEMODE	TOGGLE	F	I/E AutoRange
IERANGE	IQUANT	4	I/E Range
POSFEEDENABLE	TOGGLE	F	Positive Feedback IR Comp
POSFEEDRESISTANCE	QUANT	0	Positive Feedback Resistance (ohm)
ACHSELECT	IQUANT	4	Ach Select
SENSECABLEID	IQUANT	7	Sense Cable ID
PWRCABLEID	IQUANT	7	Power Cable ID
DCCALDATE	LABEL	12/18/2023	DC Calibration Date
ACCALDATE	LABEL	12/18/2023	AC Calibration Date
THERMOSELECT	IQUANT	1	Thermo Select
FRAMEWORKVERSION	LABEL	7.8.4	Framework Version
INSTRUMENTVERSION	LABEL	4.42	Instrument Version
CURVE1	TABLE
	Pt	T	Vf	Im	Vu	Sig	Ach	IERange	Over	Temp
	#	s	V vs. Ref.	A	V	V	V	#	bits	deg C
	0	0.2	2.04500E-001	1.67944E-011	0.00000E+000	2.04550E-001	1.01202E-003	4	..........a	-327.66
	3	0.8	1.74588E-001	-5.43433E-011	0.00000E+000	1.74550E-001	1.02832E-003	4	..........a	-327.66
	6	1.4	1.44760E-001	-8.80036E-011	0.00000E+000	1.44550E-001	1.02662E-003	4	..........a	-327.66
	9	2	1.14592E-001	-1.12129E-010	0.00000E+000	1.14550E-001	1.00462E-003	4	..........a	-327.66
	12	2.6	8.45447E-002	-1.33174E-010	0.00000E+000	8.45500E-002	1.01952E-003	4	..........a	-327.66
	15	3.2	5.45598E-002	-1.50949E-010	0.00000E+000	5.45500E-002	1.02682E-003	4	..........a	-327.66
	18	3.8	2.46282E-002	-1.67053E-010	0.00000E+000	2.45500E-002	1.02132E-003	4	..........a	-327.66
	21	4.4	-5.44711E-003	-1.84034E-010	0.00000E+000	-5.45000E-003	1.02322E-003	4	..........a	-327.66
	24	5	-3.55142E-002	-1.99690E-010	0.00000E+000	-3.54500E-002	1.00432E-003	4	..........a	-327.66
	27	5.6	-6.54034E-002	-2.18791E-010	0.00000E+000	-6.54500E-002	1.00522E-003	4	..........a	-327.66
	30	6.2	-9.53805E-002	-2.39077E-010	0.00000E+000	-9.54500E-002	1.03242E-003	4	..........a	-327.66
	33	6.8	-1.25414E-001	-2.61883E-010	0.00000E+000	-1.25450E-001	1.03492E-003	4	..........a	-327.66
	36	7.4	-1.55417E-001	-2.91524E-010	0.00000E+000	-1.55450E-001	1.01852E-003	4	..........a	-327.66
	39	8	-1.85416E-001	-3.15217E-010	0.00000E+000	-1.85450E-001	1.04142E-003	4	..........a	-327.66
	42	8.6	-2.15382E-001	-3.43501E-010	0.00000E+000	-2.15450E-001	1.00212E-003	4	..........a	-327.66
	45	9.2	-2.45394E-001	-3.75365E-010	0.00000E+000	-2.45450E-001	1.00532E-003	4	..........a	-327.66
	48	9.8	-2.75384E-001	-4.17500E-010	0.00000E+000	-2.75450E-001	1.01962E-003	4	..........a	-327.66
	51	10.4	-3.05393E-001	-4.58499E-010	0.00000E+000	-3.05450E-001	1.02472E-003	4	..........a	-327.66
	54	11	-3.35335E-001	-5.13610E-010	0.00000E+000	-3.35450E-001	1.04072E-003	4	..........a	-327.66
	57	11.6	-3.65422E-001	-5.76762E-010	0.00000E+000	-3.65450E-001	1.02672E-003	4	..........a	-327.66
	60	12.2	-3.95397E-001	-6.49326E-010	0.00000E+000	-3.95450E-001	1.00192E-003	4	..........a	-327.66
	63	12.8	-4.25370E-001	-7.33527E-010	0.00000E+000	-4.25450E-001	1.01742E-003	4	..........a	-327.66
	66	13.4	-4.55314E-001	-8.26632E-010	0.00000E+000	-4.55450E-001	1.00482E-003	4	..........a	-327.66
	69	14	-4.85366E-001	-9.29180E-010	0.00000E+000	-4.85450E-001	1.01212E-003	4	..........a	-327.66
	72	14.6	-5.15401E-001	-1.03108E-009	0.00000E+000	-5.15450E-001	1.04642E-003	4	..........a	-327.66
	75	15.2	-5.45392E-001	-1.14283E-009	0.00000E+000	-5.45450E-001	1.00912E-003	4	..........a	-327.66
	78	15.8	-5.75285E-001	-1.26476E-009	0.00000E+000	-5.75450E-001	1.00852E-003	4	..........a	-327.66
	81	16.4	-5.85390E-001	-1.15338E-009	0.00000E+000	-5.85450E-001	1.02482E-003	4	..........a	-327.66
	84	17	-5.55399E-001	-7.87807E-010	0.00000E+000	-5.55450E-001	1.00362E-003	4	..........a	-327.66
	87	17.6	-5.25413E-001	-5.50876E-010	0.00000E+000	-5.25450E-001	1.00212E-003	4	..........a	-327.66
	90	18.2	-4.95275E-001	-3.86231E-010	0.00000E+000	-4.95450E-001	1.00412E-003	4	..........a	-327.66
	93	18.8	-4.65381E-001	-2.53298E-010	0.00000E+000	-4.65450E-001	1.02172E-003	4	..........a	-327.66
	96	19.4	-4.35400E-001	-1.46950E-010	0.00000E+000	-4.35450E-001	1.03352E-003	4	..........a	-327.66
	99	20	-4.05398E-001	-5.86975E-011	0.00000E+000	-4.05450E-001	1.03012E-003	4	..........a	-327.66
	102	20.6	-3.75348E-001	1.59774E-011	0.00000E+000	-3.75450E-001	1.02172E-003	4	..........a	-327.66
	105	21.2	-3.45430E-001	7.67797E-011	0.00000E+000	-3.45450E-001	1.01692E-003	4	..........a	-327.66
	108	21.8	-3.15472E-001	1.29080E-010	0.00000E+000	-3.15450E-001	1.02802E-003	4	..........a	-327.66
	111	22.4	-2.85387E-001	1.67430E-010	0.00000E+000	-2.85450E-001	1.05172E-003	4	..........a	-327.66
	114	23	-2.55276E-001	1.97849E-010	0.00000E+000	-2.55450E-001	1.01582E-003	4	..........a	-327.66
	117	23.6	-2.25390E-001	2.18338E-010	0.00000E+000	-2.25450E-001	1.01562E-003	4	..........a	-327.66
	120	24.2	-1.95465E-001	2.35835E-010	0.00000E+000	-1.95450E-001	1.02132E-003	4	..........a	-327.66
	123	24.8	-1.65466E-001	2.50099E-010	0.00000E+000	-1.65450E-001	1.02492E-003	4	..........a	-327.66
	126	25.4	-1.35311E-001	2.61202E-010	0.00000E+000	-1.35450E-001	1.01582E-003	4	..........a	-327.66
	129	26	-1.05495E-001	2.69619E-010	0.00000E+000	-1.05450E-001	1.01982E-003	4	..........a	-327.66
	132	26.6	-7.54666E-002	2.76869E-010	0.00000E+000	-7.54500E-002	1.02982E-003	4	..........a	-327.66
	135	27.2	-4.54386E-002	2.82247E-010	0.00000E+000	-4.54500E-002	1.03252E-003	4	..........a	-327.66
	138	27.8	-1.53961E-002	2.87949E-010	0.00000E+000	-1.54500E-002	1.02772E-003	4	..........a	-327.66
	141	28.4	1.45707E-002	2.91807E-010	0.00000E+000	1.45500E-002	1.01572E-003	4	..........a	-327.66
	144	29	4.44852E-002	2.97026E-010	0.00000E+000	4.45500E-002	1.03132E-003	4	..........a	-327.66
	147	29.6	7.45082E-002	3.00197E-010	0.00000E+000	7.45500E-002	1.05582E-003	4	..........a	-327.66
	150	30.2	1.04658E-001	3.04891E-010	0.00000E+000	1.04550E-001	1.04292E-003	4	..........a	-327.66
	153	30.8	1.34590E-001	3.09066E-010	0.00000E+000	1.34550E-001	1.00452E-003	4	..........a	-327.66
	156	31.4	1.64574E-001	3.14687E-010	0.00000E+000	1.64550E-001	1.04972E-003	4	..........a	-327.66
	159	32	1.94489E-001	3.20536E-010	0.00000E+000	1.94550E-001	1.05102E-003	4	..........a	-327.66
	162	32.6	2.24687E-001	3.27163E-010	0.00000E+000	2.24550E-001	1.02912E-003	4	..........a	-327.66
	165	33.2	2.54518E-001	3.34526E-010	0.00000E+000	2.54550E-001	1.01862E-003	4	..........a	-327.66
	168	33.8	2.84505E-001	3.42465E-010	0.00000E+000	2.84550E-001	1.03042E-003	4	..........a	-327.66
	171	34.4	3.14558E-001	3.49560E-010	0.00000E+000	3.14550E-001	1.02042E-003	4	..........a	-327.66
	174	35	3.44598E-001	3.60600E-010	0.00000E+000	3.44550E-001	1.02552E-003	4	..........a	-327.66
	177	35.6	3.74496E-001	3.70416E-010	0.00000E+000	3.74550E-001	1.02002E-003	4	..........a	-327.66
	180	36.2	4.04469E-001	3.81556E-010	0.00000E+000	4.04550E-001	1.04642E-003	4	..........a	-327.66
	183	36.8	4.34466E-001	3.96833E-010	0.00000E+000	4.34550E-001	1.00772E-003	4	..........a	-327.66
	186	37.4	4.64536E-001	4.12525E-010	0.00000E+000	4.64550E-001	1.02592E-003	4	..........a	-327.66
	189	38	4.94544E-001	4.32950E-010	0.00000E+000	4.94550E-001	1.01782E-003	4	..........a	-327.66
	192	38.6	5.24530E-001	4.56081E-010	0.00000E+000	5.24550E-001	1.02562E-003	4	..........a	-327.66
	195	39.2	5.54448E-001	4.81379E-010	0.00000E+000	5.54550E-001	1.00552E-003	4	..........a	-327.66
	198	39.8	5.84554E-001	5.12975E-010	0.00000E+000	5.84550E-001	1.01402E-003	4	..........a	-327.66
	201	40.4	6.14479E-001	5.49882E-010	0.00000E+000	6.14550E-001	1.00002E-003	4	..........a	-327.66
	204	41	6.44442E-001	5.92472E-010	0.00000E+000	6.44550E-001	1.03042E-003	4	..........a	-327.66
	207	41.6	6.74515E-001	6.37758E-010	0.00000E+000	6.74550E-001	1.02262E-003	4	..........a	-327.66
	210	42.2	7.04496E-001	6.84656E-010	0.00000E+000	7.04550E-001	9.93122E-004	4	..........a	-327.66
	213	42.8	7.34452E-001	7.33559E-010	0.00000E+000	7.34550E-001	1.03662E-003	4	..........a	-327.66
	216	43.4	7.64412E-001	7.99259E-010	0.00000E+000	7.64550E-001	1.02872E-003	4	..........a	-327.66
	219	44	7.94464E-001	8.66773E-010	0.00000E+000	7.94550E-001	1.02522E-003	4	..........a	-327.66
CURVE2	TABLE
	Pt	T	Vf	Im	Vu	Sig	Ach	IERange	Over	Temp
	#	s	V vs. Ref.	A	V	V	V	#	bits	deg C
	220	44.2	7.89946E-001	7.28772E-010	0.00000E+000	7.90000E-001	1.02022E-003	4	..........a	-327.66
	223	44.8	7.59944E-001	4.08215E-010	0.00000E+000	7.60000E-001	1.04062E-003	4	..........a	-327.66
	226	45.4	7.29918E-001	2.50799E-010	0.00000E+000	7.30000E-001	1.02582E-003	4	..........a	-327.66
	229	46	6.99996E-001	1.56638E-010	0.00000E+000	7.00000E-001	1.03192E-003	4	..........a	-327.66
	232	46.6	6.69884E-001	7.84018E-011	0.00000E+000	6.70000E-001	1.01032E-003	4	..........a	-327.66
	235	47.2	6.39872E-001	2.49298E-011	0.00000E+000	6.40000E-001	1.03002E-003	4	..........a	-327.66
	238	47.8	6.09922E-001	-1.91189E-011	0.00000E+000	6.10000E-001	1.02622E-003	4	..........a	-327.66
	241	48.4	5.80015E-001	-5.39833E-011	0.00000E+000	5.80000E-001	1.02712E-003	4	..........a	-327.66
	244	49	5.49933E-001	-8.30044E-011	0.00000E+000	5.50000E-001	1.00932E-003	4	..........a	-327.66
	247	49.6	5.19956E-001	-1.06956E-010	0.00000E+000	5.20000E-001	1.02162E-003	4	..........a	-327.66
	250	50.2	4.89925E-001	-1.29842E-010	0.00000E+000	4.90000E-001	1.01562E-003	4	..........a	-327.66
	253	50.8	4.59995E-001	-1.48854E-010	0.00000E+000	4.60000E-001	1.01772E-003	4	..........a	-327.66
	256	51.4	4.29982E-001	-1.66026E-010	0.00000E+000	4.30000E-001	9.96422E-004	4	..........a	-327.66
	259	52	3.99938E-001	-1.82212E-010	0.00000E+000	4.00000E-001	1.01792E-003	4	..........a	-327.66
	262	52.6	3.69991E-001	-1.97551E-010	0.00000E+000	3.70000E-001	1.03872E-003	4	..........a	-327.66
	265	53.2	3.40031E-001	-2.11620E-010	0.00000E+000	3.40000E-001	1.00372E-003	4	..........a	-327.66
	268	53.8	3.09971E-001	-2.25383E-010	0.00000E+000	3.10000E-001	1.02952E-003	4	..........a	-327.66
	271	54.4	2.79983E-001	-2.36894E-010	0.00000E+000	2.80000E-001	1.01942E-003	4	..........a	-327.66
	274	55	2.50018E-001	-2.47147E-010	0.00000E+000	2.50000E-001	1.02832E-003	4	..........a	-327.66
	277	55.6	2.20031E-001	-2.59857E-010	0.00000E+000	2.20000E-001	1.04382E-003	4	..........a	-327.66
	280	56.2	1.90053E-001	-2.65377E-010	0.00000E+000	1.90000E-001	1.00072E-003	4	..........a	-327.66
	283	56.8	1.59953E-001	-2.79227E-010	0.00000E+000	1.60000E-001	1.01092E-003	4	..........a	-327.66
	286	57.4	1.30048E-001	-2.89457E-010	0.00000E+000	1.30000E-001	1.00512E-003	4	..........a	-327.66
	289	58	1.00046E-001	-2.92180E-010	0.00000E+000	1.00000E-001	1.01602E-003	4	..........a	-327.66
	292	58.6	7.00526E-002	-2.96570E-010	0.00000E+000	7.00000E-002	1.01542E-003	4	..........a	-327.66
	295	59.2	3.98519E-002	-3.09399E-010	0.00000E+000	4.00000E-002	9.91522E-004	4	..........a	-327.66
	298	59.8	1.00559E-002	-3.18030E-010	0.00000E+000	1.00000E-002	1.00552E-003	4	..........a	-327.66
	301	60.4	-1.99310E-002	-3.29413E-010	0.00000E+000	-2.00000E-002	1.00862E-003	4	..........a	-327.66
	304	61	-4.99863E-002	-3.43911E-010	0.00000E+000	-5.00000E-002	9.99322E-004	4	..........a	-327.66
	307	61.6	-7.98572E-002	-3.52963E-010	0.00000E+000	-8.00000E-002	1.00262E-003	4	..........a	-327.66
	310	62.2	-1.10060E-001	-3.81795E-010	0.00000E+000	-1.10000E-001	1.00922E-003	4	..........a	-327.66
	313	62.8	-1.39924E-001	-4.00632E-010	0.00000E+000	-1.40000E-001	1.02652E-003	4	..........a	-327.66
	316	63.4	-1.69957E-001	-4.22519E-010	0.00000E+000	-1.70000E-001	9.91922E-004	4	..........a	-327.66
	319	64	-1.99984E-001	-4.46232E-010	0.00000E+000	-2.00000E-001	1.01302E-003	4	..........a	-327.66
	322	64.6	-2.29985E-001	-4.70103E-010	0.00000E+000	-2.30000E-001	9.91622E-004	4	..........a	-327.66
	325	65.2	-2.59914E-001	-4.97282E-010	0.00000E+000	-2.60000E-001	1.01252E-003	4	..........a	-327.66
	328	65.8	-2.90010E-001	-5.31253E-010	0.00000E+000	-2.90000E-001	1.04282E-003	4	..........a	-327.66
	331	66.4	-3.19925E-001	-5.69946E-010	0.00000E+000	-3.20000E-001	9.93322E-004	4	..........a	-327.66
	334	67	-3.49910E-001	-6.12747E-010	0.00000E+000	-3.50000E-001	1.02472E-003	4	..........a	-327.66
	337	67.6	-3.79931E-001	-6.64134E-010	0.00000E+000	-3.80000E-001	1.04992E-003	4	..........a	-327.66
	340	68.2	-4.09969E-001	-7.20331E-010	0.00000E+000	-4.10000E-001	1.01612E-003	4	..........a	-327.66
	343	68.8	-4.40020E-001	-7.88040E-010	0.00000E+000	-4.40000E-001	1.00692E-003	4	..........a	-327.66
	346	69.4	-4.69918E-001	-8.56262E-010	0.00000E+000	-4.70000E-001	1.02372E-003	4	..........a	-327.66
	349	70	-4.99880E-001	-9.35547E-010	0.00000E+000	-5.00000E-001	9.95222E-004	4	..........a	-327.66
	352	70.6	-5.29896E-001	-1.02619E-009	0.00000E+000	-5.30000E-001	1.02372E-003	4	..........a	-327.66
	355	71.2	-5.59886E-001	-1.13351E-009	0.00000E+000	-5.60000E-001	1.01502E-003	4	..........a	-327.66
	358	71.8	-5.89915E-001	-1.26421E-009	0.00000E+000	-5.90000E-001	1.01192E-003	4	..........a	-327.66
	361	72.4	-5.79880E-001	-9.31211E-010	0.00000E+000	-5.80000E-001	1.02352E-003	4	..........a	-327.66
[...]
	981	196.4	2.00041E-002	3.06695E-010	0.00000E+000	2.00000E-002	1.04892E-003	4	..........a	-327.66
	984	197	5.00341E-002	3.12091E-010	0.00000E+000	5.00000E-002	1.02742E-003	4	..........a	-327.66
	987	197.6	7.99817E-002	3.16250E-010	0.00000E+000	8.00000E-002	1.03092E-003	4	..........a	-327.66
	990	198.2	1.10015E-001	3.21740E-010	0.00000E+000	1.10000E-001	1.03882E-003	4	..........a	-327.66
	993	198.8	1.40094E-001	3.30258E-010	0.00000E+000	1.40000E-001	1.06622E-003	4	..........a	-327.66
	996	199.4	1.70000E-001	3.38446E-010	0.00000E+000	1.70000E-001	1.03692E-003	4	..........a	-327.66
	999	200	2.00031E-001	3.48272E-010	0.00000E+000	2.00000E-001	1.03062E-003	4	..........a	-327.66
	1002	200.6	2.29966E-001	3.59081E-010	0.00000E+000	2.30000E-001	1.05712E-003	4	..........a	-327.66
	1005	201.2	2.59989E-001	3.70817E-010	0.00000E+000	2.60000E-001	1.04592E-003	4	..........a	-327.66
	1008	201.8	2.90000E-001	3.81613E-010	0.00000E+000	2.90000E-001	1.03942E-003	4	..........a	-327.66
	1011	202.4	3.19997E-001	3.90969E-010	0.00000E+000	3.20000E-001	1.05312E-003	4	..........a	-327.66
	1014	203	3.49941E-001	3.99609E-010	0.00000E+000	3.50000E-001	1.02172E-003	4	..........a	-327.66
	1017	203.6	3.80030E-001	4.07686E-010	0.00000E+000	3.80000E-001	1.03302E-003	4	..........a	-327.66
	1020	204.2	4.09943E-001	4.15130E-010	0.00000E+000	4.10000E-001	1.02992E-003	4	..........a	-327.66
	1023	204.8	4.39956E-001	4.21945E-010	0.00000E+000	4.40000E-001	1.04632E-003	4	..........a	-327.66
	1026	205.4	4.69957E-001	4.31217E-010	0.00000E+000	4.70000E-001	1.04902E-003	4	..........a	-327.66
	1029	206	5.00067E-001	4.40731E-010	0.00000E+000	5.00000E-001	1.03132E-003	4	..........a	-327.66
	1032	206.6	5.29959E-001	4.53333E-010	0.00000E+000	5.30000E-001	1.02772E-003	4	..........a	-327.66
	1035	207.2	5.60001E-001	4.67358E-010	0.00000E+000	5.60000E-001	1.06052E-003	4	..........a	-327.66
	1038	207.8	5.89962E-001	4.83120E-010	0.00000E+000	5.90000E-001	1.02922E-003	4	..........a	-327.66
	1041	208.4	6.19999E-001	5.05798E-010	0.00000E+000	6.20000E-001	1.05912E-003	4	..........a	-327.66
	1044	209	6.49915E-001	5.28940E-010	0.00000E+000	6.50000E-001	1.04282E-003	4	..........a	-327.66
	1047	209.6	6.79776E-001	5.59481E-010	0.00000E+000	6.80000E-001	1.03992E-003	4	..........a	-327.66
	1050	210.2	7.09900E-001	5.98038E-010	0.00000E+000	7.10000E-001	1.03872E-003	4	..........a	-327.66
	1053	210.8	7.40005E-001	6.47646E-010	0.00000E+000	7.40000E-001	1.03162E-003	4	..........a	-327.66
	1056	211.4	7.69909E-001	7.10551E-010	0.00000E+000	7.70000E-001	1.02452E-003	4	..........a	-327.66
	1059	212	7.99910E-001	7.92185E-010	0.00000E+000	8.00000E-001	1.04492E-003	4	..........a	-327.66
CURVE5	TABLE
	Pt	T	Vf	Im	Vu	Sig	Ach	IERange	Over	Temp
	#	s	V vs. Ref.	A	V	V	V	#	bits	deg C
	1060	212.2	7.89937E-001	6.05730E-010	0.00000E+000	7.90000E-001	1.03962E-003	4	..........a	-327.66
	1061	212.4	7.79986E-001	4.91839E-010	0.00000E+000	7.80000E-001	1.05612E-003	4	..........a	-327.66
	1062	212.6	7.69934E-001	4.07127E-010	0.00000E+000	7.70000E-001	1.03152E-003	4	..........a	-327.66
	1063	212.8	7.59942E-001	3.39789E-010	0.00000E+000	7.60000E-001	1.04292E-003	4	..........a	-327.66
	1064	213	7.49942E-001	2.84726E-010	0.00000E+000	7.50000E-001	1.05712E-003	4	..........a	-327.66
	1065	213.2	7.39946E-001	2.40033E-010	0.00000E+000	7.40000E-001	1.03882E-003	4	..........a	-327.66
	1066	213.4	7.30012E-001	2.01911E-010	0.00000E+000	7.30000E-001	1.02532E-003	4	..........a	-327.66
	1067	213.6	7.19880E-001	1.69363E-010	0.00000E+000	7.20000E-001	1.04742E-003	4	..........a	-327.66
	1068	213.8	7.09904E-001	1.40428E-010	0.00000E+000	7.10000E-001	1.05102E-003	4	..........a	-327.66
	1069	214	7.00004E-001	1.17622E-010	0.00000E+000	7.00000E-001	1.02782E-003	4	..........a	-327.66
	1070	214.2	6.89927E-001	9.18923E-011	0.00000E+000	6.90000E-001	1.02262E-003	4	..........a	-327.66
	1071	214.4	6.79799E-001	7.38636E-011	0.00000E+000	6.80000E-001	1.04332E-003	4	..........a	-327.66
	1072	214.6	6.69943E-001	5.61150E-011	0.00000E+000	6.70000E-001	1.03382E-003	4	..........a	-327.66
	1073	214.8	6.60030E-001	4.00913E-011	0.00000E+000	6.60000E-001	1.04232E-003	4	..........a	-327.66
	1074	215	6.49917E-001	2.62698E-011	0.00000E+000	6.50000E-001	1.03152E-003	4	..........a	-327.66
	1075	215.2	6.39918E-001	9.85718E-012	0.00000E+000	6.40000E-001	1.02772E-003	4	..........a	-327.66
	1076	215.4	6.29913E-001	-4.40837E-012	0.00000E+000	6.30000E-001	1.02232E-003	4	..........a	-327.66
	1077	215.6	6.19998E-001	-1.65148E-011	0.00000E+000	6.20000E-001	1.03462E-003	4	..........a	-327.66
	1078	215.8	6.09986E-001	-3.02894E-011	0.00000E+000	6.10000E-001	1.02722E-003	4	..........a	-327.66
	1079	216	5.99988E-001	-3.94867E-011	0.00000E+000	6.00000E-001	1.04712E-003	4	..........a	-327.66
	1080	216.2	5.89918E-001	-5.04161E-011	0.00000E+000	5.90000E-001	1.02772E-003	4	..........a	-327.66
	1081	216.4	5.80005E-001	-6.15056E-011	0.00000E+000	5.80000E-001	1.04402E-003	4	..........a	-327.66
	1082	216.6	5.69979E-001	-6.98679E-011	0.00000E+000	5.70000E-001	1.01062E-003	4	..........a	-327.66
	1083	216.8	5.59922E-001	-7.88612E-011	0.00000E+000	5.60000E-001	1.03512E-003	4	..........a	-327.66
	1084	217	5.49972E-001	-8.77366E-011	0.00000E+000	5.50000E-001	1.04512E-003	4	..........a	-327.66
	1085	217.2	5.40006E-001	-9.82590E-011	0.00000E+000	5.40000E-001	1.04042E-003	4	..........a	-327.66
	1086	217.4	5.29953E-001	-1.03914E-010	0.00000E+000	5.30000E-001	1.04492E-003	4	..........a	-327.66
	1087	217.6	5.19969E-001	-1.11839E-010	0.00000E+000	5.20000E-001	1.04092E-003	4	..........a	-327.66
	1088	217.8	5.09951E-001	-1.19904E-010	0.00000E+000	5.10000E-001	1.02702E-003	4	..........a	-327.66
	1089	218	5.00007E-001	-1.28036E-010	0.00000E+000	5.00000E-001	1.02832E-003	4	..........a	-327.66
	1090	218.2	4.89959E-001	-1.35379E-010	0.00000E+000	4.90000E-001	1.03952E-003	4	..........a	-327.66
	1091	218.4	4.79915E-001	-1.43395E-010	0.00000E+000	4.80000E-001	1.05402E-003	4	..........a	-327.66
	1092	218.6	4.69972E-001	-1.50228E-010	0.00000E+000	4.70000E-001	1.04412E-003	4	..........a	-327.66
	1093	218.8	4.60003E-001	-1.57728E-010	0.00000E+000	4.60000E-001	1.04072E-003	4	..........a	-327.66
	1094	219	4.49973E-001	-1.63819E-010	0.00000E+000	4.50000E-001	1.02272E-003	4	..........a	-327.66
	1095	219.2	4.39971E-001	-1.69456E-010	0.00000E+000	4.40000E-001	1.06482E-003	4	..........a	-327.66
	1096	219.4	4.29926E-001	-1.76376E-010	0.00000E+000	4.30000E-001	1.04832E-003	4	..........a	-327.66
	1097	219.6	4.20024E-001	-1.82240E-010	0.00000E+000	4.20000E-001	1.05282E-003	4	..........a	-327.66
	1098	219.8	4.09949E-001	-1.88951E-010	0.00000E+000	4.10000E-001	1.05272E-003	4	..........a	-327.66
	1099	220	3.99902E-001	-1.95745E-010	0.00000E+000	4.00000E-001	1.05172E-003	4	..........a	-327.66
	1100	220.2	3.89965E-001	-2.00795E-010	0.00000E+000	3.90000E-001	1.03812E-003	4	..........a	-327.66
	1101	220.4	3.79992E-001	-2.06946E-010	0.00000E+000	3.80000E-001	1.03102E-003	4	..........a	-327.66
	1102	220.6	3.70003E-001	-2.11716E-010	0.00000E+000	3.70000E-001	1.05242E-003	4	..........a	-327.66
	1103	220.8	3.59956E-001	-2.18283E-010	0.00000E+000	3.60000E-001	1.05142E-003	4	..........a	-327.66
	1104	221	3.49962E-001	-2.23891E-010	0.00000E+000	3.50000E-001	1.04482E-003	4	..........a	-327.66
	1105	221.2	3.40046E-001	-2.28524E-010	0.00000E+000	3.40000E-001	1.02392E-003	4	..........a	-327.66
	1106	221.4	3.29990E-001	-2.33499E-010	0.00000E+000	3.30000E-001	1.05142E-003	4	..........a	-327.66
	1107	221.6	3.20010E-001	-2.39137E-010	0.00000E+000	3.20000E-001	1.03412E-003	4	..........a	-327.66
	1108	221.8	3.09973E-001	-2.43772E-010	0.00000E+000	3.10000E-001	1.05492E-003	4	..........a	-327.66
	1109	222	3.00013E-001	-2.48873E-010	0.00000E+000	3.00000E-001	1.03902E-003	4	..........a	-327.66
	1110	222.2	2.90015E-001	-2.54723E-010	0.00000E+000	2.90000E-001	1.02572E-003	4	..........a	-327.66
	1111	222.4	2.79903E-001	-2.58907E-010	0.00000E+000	2.80000E-001	1.04892E-003	4	..........a	-327.66
	1112	222.6	2.69985E-001	-2.62245E-010	0.00000E+000	2.70000E-001	1.03062E-003	4	..........a	-327.66
	1113	222.8	2.60051E-001	-2.66046E-010	0.00000E+000	2.60000E-001	1.03252E-003	4	..........a	-327.66
	1114	223	2.49988E-001	-2.70991E-010	0.00000E+000	2.50000E-001	1.04302E-003	4	..........a	-327.66
	1115	223.2	2.39977E-001	-2.77068E-010	0.00000E+000	2.40000E-001	1.02092E-003	4	..........a	-327.66
	1116	223.4	2.29987E-001	-2.81492E-010	0.00000E+000	2.30000E-001	1.03592E-003	4	..........a	-327.66
	1117	223.6	2.20009E-001	-2.85941E-010	0.00000E+000	2.20000E-001	1.03792E-003	4	..........a	-327.66
	1118	223.8	2.10009E-001	-2.89535E-010	0.00000E+000	2.10000E-001	1.01462E-003	4	..........a	-327.66