File: data/raw/batch_data/20240321_ZI_GM0016_HL03_E09_CV50.DTA
EXPLAIN
TAG	CV
TITLE	LABEL	Cyclic Voltammetry	Test &Identifier
DATE	LABEL	3/21/2024	Date
TIME	LABEL	18:27:21	Time
NOTES	NOTES	1	&Notes...

PSTAT	PSTAT	REF600P-43058	Potentiostat
VINIT	POTEN	0.00000E+000	T	Initial &E (V)
VLIMIT1	POTEN	-6.00000E-001	F	Scan Limit &1 (V)
VLIMIT2	POTEN	8.00000E-001	F	Scan Limit &2 (V)
VFINAL	POTEN	0.00000E+000	T	Final &E (V)
SCANRATE	QUANT	4.99999E+001	&Scan Rate (mV/s)
STEPSIZE	QUANT	1.00000E+001	St&ep Size (mV)
CYCLES	IQUANT	4	C&ycles (#)
IMODE	SELECTOR	1	I/E Range &Mode
IRANGE	QUANT	1.00000E-005	&Max Current (mA)
AREA	QUANT	1.00000E+000	Electrode &Area (cm^2)
ELECTRODETYPE	SELECTOR	0	Electrode Type
STRIPPING	TOGGLE	F	Used for Stripping
POLARITY	TOGGLE	F	Signal Polarity
CONDIT	TWOPARAM	F	1.50000E+001	0.00000E+000	Conditionin&g	Time(s)	E(V)
DELAY	TWOPARAM	T	1.00000E+001	0.00000E+000	Init. De&lay	Time(s)	Stab.(mV/s)
EQDELAY	QUANT	1.00000E+001	Equil. &Time (s)
IRCOMP	SELECTOR	0	IRCom&p
PFCOR	QUANT	5.00000E+001	PF Corr. (ohm)
SAMPLINGMODE	SELECTOR	1	Sampling &Mode
OCVCURVE	TABLE	39
	Pt	T	Vf	Vm	Ach	Over	Temp
	#	s	V vs. Ref.	V	V	bits	deg C
	0	0.258333	1.93430E-001	1.93430E-001	2.47356E-004	..........a	-327.66
	1	0.516667	1.93435E-001	1.93656E-001	2.57822E-004	..........a	-327.66
	2	0.775	1.93465E-001	1.94074E-001	2.63622E-004	..........a	-327.66
	3	1.03333	1.93566E-001	1.94579E-001	2.63422E-004	..........a	-327.66
	4	1.29167	1.93781E-001	1.95135E-001	2.52956E-004	..........a	-327.66
	5	1.55	1.94126E-001	1.95733E-001	2.42156E-004	..........a	-327.66
	6	1.80833	1.94581E-001	1.96344E-001	2.52089E-004	..........a	-327.66
	7	2.06667	1.95113E-001	1.96957E-001	2.60089E-004	..........a	-327.66
	8	2.325	1.95692E-001	1.97575E-001	2.49822E-004	..........a	-327.66
	9	2.58333	1.96295E-001	1.98203E-001	2.49422E-004	..........a	-327.66
	10	2.84167	1.96910E-001	1.98828E-001	2.50756E-004	..........a	-327.66
	11	3.1	1.97530E-001	1.99454E-001	2.56089E-004	..........a	-327.66
	12	3.35833	1.98154E-001	2.00077E-001	2.55889E-004	..........a	-327.66
	13	3.61667	1.98779E-001	2.00693E-001	2.40822E-004	..........a	-327.66
	14	3.875	1.99403E-001	2.01320E-001	2.62756E-004	..........a	-327.66
	15	4.13333	2.00026E-001	2.01933E-001	2.58889E-004	..........a	-327.66
	16	4.39167	2.00647E-001	2.02554E-001	2.69756E-004	..........a	-327.66
	17	4.65	2.01268E-001	2.03170E-001	2.57889E-004	..........a	-327.66
	18	4.90833	2.01887E-001	2.03783E-001	2.69889E-004	..........a	-327.66
	19	5.16667	2.02504E-001	2.04379E-001	2.71356E-004	..........a	-327.66
	20	5.425	2.03118E-001	2.04988E-001	2.44422E-004	..........a	-327.66
	21	5.68333	2.03729E-001	2.05593E-001	2.54889E-004	..........a	-327.66
	22	5.94167	2.04335E-001	2.06178E-001	2.56489E-004	..........a	-327.66
	23	6.2	2.04939E-001	2.06803E-001	2.57822E-004	..........a	-327.66
	24	6.45833	2.05542E-001	2.07405E-001	2.61889E-004	..........a	-327.66
	25	6.71667	2.06145E-001	2.08003E-001	2.54689E-004	..........a	-327.66
	26	6.975	2.06749E-001	2.08596E-001	2.48756E-004	..........a	-327.66
	27	7.23333	2.07353E-001	2.09196E-001	2.67956E-004	..........a	-327.66
	28	7.49167	2.07953E-001	2.09786E-001	2.70556E-004	..........a	-327.66
	29	7.75	2.08551E-001	2.10363E-001	2.63556E-004	..........a	-327.66
	30	8.00833	2.09144E-001	2.10954E-001	2.53956E-004	..........a	-327.66
	31	8.26667	2.09734E-001	2.11535E-001	2.67756E-004	..........a	-327.66
	32	8.525	2.10321E-001	2.12111E-001	2.59022E-004	..........a	-327.66
	33	8.78333	2.10905E-001	2.12693E-001	2.47089E-004	..........a	-327.66
	34	9.04167	2.11487E-001	2.13267E-001	2.54422E-004	..........a	-327.66
	35	9.3	2.12067E-001	2.13835E-001	2.46756E-004	..........a	-327.66
	36	9.5583	2.12644E-001	2.14411E-001	2.62556E-004	..........a	-327.66
	37	9.8167	2.13219E-001	2.14975E-001	2.63889E-004	..........a	-327.66
	38	10.075	2.13792E-001	2.15543E-001	2.48622E-004	..........a	-327.66
EOC	QUANT	0.2137918	Open Circuit (V)
PSTATMODEL	IQUANT	7	Pstat Model
PSTATSECTION	LABEL	REF600P-43058	Pstat Section
PSTATSERIALNO	LABEL	43058	Pstat Serial Number
CTRLMODE	IQUANT	1	Control Mode
ELECTROMETER	IQUANT	0	RE=0 or CS=1
IESTAB	IQUANT	2	I/E Stability
CASPEED	IQUANT	4	Control Amp Speed
CONVENTION	IQUANT	1	Current Convention
ICHRANGE	IQUANT	2	Ich Range
ICHRANGEMODE	TOGGLE	F	Ich Auto Range
ICHOFFSETENABLE	TOGGLE	F	Ich Offset Enable
ICHOFFSET	QUANT	0	Ich Offset (V)
ICHFILTER	IQUANT	2	Ich Filter
VCHRANGE	IQUANT	2	Vch Range
VCHRANGEMODE	TOGGLE	F	Vch Auto Range
VCHOFFSETENABLE	TOGGLE	F	Vch Offset Enable
VCHOFFSET	QUANT	0	Vch Offset (V)
VCHFILTER	IQUANT	2	Vch Filter
ACHRANGE	IQUANT	2	Ach Range
ACHOFFSETENABLE	TOGGLE	F	Ach Offset Enable
ACHOFFSET	QUANT	0	Ach Offset (V)
ACHFILTER	IQUANT	1	Ach Filter
IERANGELOWERLIMIT	IQUANT	1	I/E Range Lower Limit
IERANGEMODE	TOGGLE	F	I/E AutoRange
IERANGE	IQUANT	4	I/E Range
POSFEEDENABLE	TOGGLE	F	Positive Feedback IR Comp
POSFEEDRESISTANCE	QUANT	0	Positive Feedback Resistance (ohm)
ACHSELECT	IQUANT	4	Ach Select
SENSECABLEID	IQUANT	7	Sense Cable ID
PWRCABLEID	IQUANT	7	Power Cable ID
DCCALDATE	LABEL	12/18/2023	DC Calibration Date
ACCALDATE	LABEL	12/18/2023	AC Calibration Date
THERMOSELECT	IQUANT	1	Thermo Select
FRAMEWORKVERSION	LABEL	7.8.4	Framework Version
INSTRUMENTVERSION	LABEL	4.42	Instrument Version
CURVE1	TABLE
	Pt	T	Vf	Im	Vu	Sig	Ach	IERange	Over	Temp
	#	s	V vs. Ref.	A	V	V	V	#	bits	deg C
	0	0.2	2.13809E-001	1.51444E-011	0.00000E+000	2.13800E-001	9.97122E-004	4	..........a	-327.66
	3	0.8	1.83855E-001	-2.79473E-011	0.00000E+000	1.83800E-001	1.03852E-003	4	..........a	-327.66
	6	1.4	1.53826E-001	-5.13772E-011	0.00000E+000	1.53800E-001	1.02202E-003	4	..........a	-327.66
	9	2	1.23950E-001	-6.80598E-011	0.00000E+000	1.23800E-001	1.00112E-003	4	..........a	-327.66
	12	2.6	9.38409E-002	-8.24274E-011	0.00000E+000	9.38000E-002	9.89722E-004	4	..........a	-327.66
	15	3.2	6.38377E-002	-9.51599E-011	0.00000E+000	6.38000E-002	9.96422E-004	4	..........a	-327.66
	18	3.8	3.38553E-002	-1.07448E-010	0.00000E+000	3.38000E-002	9.81822E-004	4	..........a	-327.66
	21	4.4	3.97239E-003	-1.19503E-010	0.00000E+000	3.80000E-003	1.00622E-003	4	..........a	-327.66
	24	5	-2.61690E-002	-1.31950E-010	0.00000E+000	-2.62000E-002	1.01542E-003	4	..........a	-327.66
	27	5.6	-5.61012E-002	-1.46455E-010	0.00000E+000	-5.62000E-002	1.01202E-003	4	..........a	-327.66
	30	6.2	-8.61653E-002	-1.60738E-010	0.00000E+000	-8.62000E-002	9.94722E-004	4	..........a	-327.66
	33	6.8	-1.16137E-001	-1.75992E-010	0.00000E+000	-1.16200E-001	9.84722E-004	4	..........a	-327.66
	36	7.4	-1.46176E-001	-1.93900E-010	0.00000E+000	-1.46200E-001	1.00082E-003	4	..........a	-327.66
	39	8	-1.76217E-001	-2.12788E-010	0.00000E+000	-1.76200E-001	1.01082E-003	4	..........a	-327.66
	42	8.6	-2.06128E-001	-2.32790E-010	0.00000E+000	-2.06200E-001	1.00382E-003	4	..........a	-327.66
	45	9.2	-2.36009E-001	-2.55453E-010	0.00000E+000	-2.36200E-001	1.02072E-003	4	..........a	-327.66
	48	9.8	-2.66100E-001	-2.83061E-010	0.00000E+000	-2.66200E-001	9.96722E-004	4	..........a	-327.66
	51	10.4	-2.96094E-001	-3.09051E-010	0.00000E+000	-2.96200E-001	9.94122E-004	4	..........a	-327.66
	54	11	-3.26140E-001	-3.38981E-010	0.00000E+000	-3.26200E-001	1.00272E-003	4	..........a	-327.66
	57	11.6	-3.56086E-001	-3.73691E-010	0.00000E+000	-3.56200E-001	1.02022E-003	4	..........a	-327.66
	60	12.2	-3.86106E-001	-4.13591E-010	0.00000E+000	-3.86200E-001	1.00262E-003	4	..........a	-327.66
	63	12.8	-4.16002E-001	-4.54141E-010	0.00000E+000	-4.16200E-001	1.03142E-003	4	..........a	-327.66
	66	13.4	-4.46115E-001	-5.00673E-010	0.00000E+000	-4.46200E-001	1.01172E-003	4	..........a	-327.66
	69	14	-4.76071E-001	-5.53247E-010	0.00000E+000	-4.76200E-001	1.02362E-003	4	..........a	-327.66
	72	14.6	-5.06087E-001	-6.13836E-010	0.00000E+000	-5.06200E-001	9.80722E-004	4	..........a	-327.66
	75	15.2	-5.36078E-001	-6.81835E-010	0.00000E+000	-5.36200E-001	1.01392E-003	4	..........a	-327.66
	78	15.8	-5.66098E-001	-7.62840E-010	0.00000E+000	-5.66200E-001	1.01842E-003	4	..........a	-327.66
	81	16.4	-5.95997E-001	-8.61537E-010	0.00000E+000	-5.96200E-001	1.01862E-003	4	..........a	-327.66
	84	17	-5.66084E-001	-5.50754E-010	0.00000E+000	-5.66200E-001	9.84722E-004	4	..........a	-327.66
	87	17.6	-5.36039E-001	-3.76736E-010	0.00000E+000	-5.36200E-001	1.00352E-003	4	..........a	-327.66
	90	18.2	-5.06103E-001	-2.49568E-010	0.00000E+000	-5.06200E-001	1.01222E-003	4	..........a	-327.66
	93	18.8	-4.76042E-001	-1.52727E-010	0.00000E+000	-4.76200E-001	1.00512E-003	4	..........a	-327.66
	96	19.4	-4.46143E-001	-7.68271E-011	0.00000E+000	-4.46200E-001	1.02142E-003	4	..........a	-327.66
	99	20	-4.16197E-001	-1.83309E-011	0.00000E+000	-4.16200E-001	1.00952E-003	4	..........a	-327.66
	102	20.6	-3.86167E-001	3.10120E-011	0.00000E+000	-3.86200E-001	1.00102E-003	4	..........a	-327.66
	105	21.2	-3.56035E-001	6.86004E-011	0.00000E+000	-3.56200E-001	1.00862E-003	4	..........a	-327.66
	108	21.8	-3.26125E-001	9.89926E-011	0.00000E+000	-3.26200E-001	9.94722E-004	4	..........a	-327.66
	111	22.4	-2.96157E-001	1.26940E-010	0.00000E+000	-2.96200E-001	9.84822E-004	4	..........a	-327.66
	114	23	-2.66140E-001	1.44923E-010	0.00000E+000	-2.66200E-001	9.99722E-004	4	..........a	-327.66
	117	23.6	-2.36022E-001	1.61925E-010	0.00000E+000	-2.36200E-001	9.95822E-004	4	..........a	-327.66
	120	24.2	-2.06126E-001	1.71661E-010	0.00000E+000	-2.06200E-001	1.00432E-003	4	..........a	-327.66
	123	24.8	-1.76199E-001	1.80874E-010	0.00000E+000	-1.76200E-001	9.83622E-004	4	..........a	-327.66
	126	25.4	-1.46158E-001	1.86354E-010	0.00000E+000	-1.46200E-001	1.00082E-003	4	..........a	-327.66
	129	26	-1.16144E-001	1.92063E-010	0.00000E+000	-1.16200E-001	1.01922E-003	4	..........a	-327.66
	132	26.6	-8.61717E-002	1.95688E-010	0.00000E+000	-8.62000E-002	1.01602E-003	4	..........a	-327.66
	135	27.2	-5.61343E-002	1.99244E-010	0.00000E+000	-5.62000E-002	1.00502E-003	4	..........a	-327.66
	138	27.8	-2.61454E-002	2.01147E-010	0.00000E+000	-2.62000E-002	1.02162E-003	4	..........a	-327.66
	141	28.4	3.96449E-003	2.02419E-010	0.00000E+000	3.80000E-003	9.97422E-004	4	..........a	-327.66
	144	29	3.38793E-002	2.03310E-010	0.00000E+000	3.38000E-002	1.01262E-003	4	..........a	-327.66
	147	29.6	6.38607E-002	2.05561E-010	0.00000E+000	6.38000E-002	1.00312E-003	4	..........a	-327.66
	150	30.2	9.38450E-002	2.08450E-010	0.00000E+000	9.38000E-002	1.01622E-003	4	..........a	-327.66
	153	30.8	1.23967E-001	2.11193E-010	0.00000E+000	1.23800E-001	1.00612E-003	4	..........a	-327.66
	156	31.4	1.53866E-001	2.14706E-010	0.00000E+000	1.53800E-001	1.01592E-003	4	..........a	-327.66
	159	32	1.83843E-001	2.17339E-010	0.00000E+000	1.83800E-001	1.01842E-003	4	..........a	-327.66
	162	32.6	2.13828E-001	2.19810E-010	0.00000E+000	2.13800E-001	1.00742E-003	4	..........a	-327.66
	165	33.2	2.43945E-001	2.27031E-010	0.00000E+000	2.43800E-001	1.04782E-003	4	..........a	-327.66
	168	33.8	2.73820E-001	2.34398E-010	0.00000E+000	2.73800E-001	1.01322E-003	4	..........a	-327.66
	171	34.4	3.03711E-001	2.43030E-010	0.00000E+000	3.03800E-001	1.02402E-003	4	..........a	-327.66
	174	35	3.33821E-001	2.50146E-010	0.00000E+000	3.33800E-001	1.00712E-003	4	..........a	-327.66
	177	35.6	3.63897E-001	2.59215E-010	0.00000E+000	3.63800E-001	1.01212E-003	4	..........a	-327.66
	180	36.2	3.93812E-001	2.68922E-010	0.00000E+000	3.93800E-001	1.02262E-003	4	..........a	-327.66
	183	36.8	4.23681E-001	2.79620E-010	0.00000E+000	4.23800E-001	1.04002E-003	4	..........a	-327.66
	186	37.4	4.53693E-001	2.91152E-010	0.00000E+000	4.53800E-001	1.00342E-003	4	..........a	-327.66
	189	38	4.83879E-001	3.04823E-010	0.00000E+000	4.83800E-001	1.02192E-003	4	..........a	-327.66
	192	38.6	5.13765E-001	3.19818E-010	0.00000E+000	5.13800E-001	1.00262E-003	4	..........a	-327.66
	195	39.2	5.43778E-001	3.38626E-010	0.00000E+000	5.43800E-001	1.01132E-003	4	..........a	-327.66
	198	39.8	5.73799E-001	3.57782E-010	0.00000E+000	5.73800E-001	9.92822E-004	4	..........a	-327.66
	201	40.4	6.03920E-001	3.80681E-010	0.00000E+000	6.03800E-001	1.00732E-003	4	..........a	-327.66
	204	41	6.33751E-001	4.06762E-010	0.00000E+000	6.33800E-001	1.02412E-003	4	..........a	-327.66
	207	41.6	6.63717E-001	4.34593E-010	0.00000E+000	6.63800E-001	1.01622E-003	4	..........a	-327.66
	210	42.2	6.93737E-001	4.61573E-010	0.00000E+000	6.93800E-001	1.01572E-003	4	..........a	-327.66
	213	42.8	7.23800E-001	4.94601E-010	0.00000E+000	7.23800E-001	1.00192E-003	4	..........a	-327.66
	216	43.4	7.53773E-001	5.37009E-010	0.00000E+000	7.53800E-001	9.97222E-004	4	..........a	-327.66
	219	44	7.83732E-001	5.83511E-010	0.00000E+000	7.83800E-001	9.99122E-004	4	..........a	-327.66
	221	44.4	8.03787E-001	6.24230E-010	0.00000E+000	8.03800E-001	9.94522E-004	4	..........a	-327.66
CURVE2	TABLE
	Pt	T	Vf	Im	Vu	Sig	Ach	IERange	Over	Temp
	#	s	V vs. Ref.	A	V	V	V	#	bits	deg C
	222	44.6	7.89909E-001	4.61366E-010	0.00000E+000	7.90000E-001	1.02442E-003	4	..........a	-327.66
	225	45.2	7.59911E-001	2.77193E-010	0.00000E+000	7.60000E-001	1.04402E-003	4	..........a	-327.66
	228	45.8	7.29931E-001	1.81656E-010	0.00000E+000	7.30000E-001	1.01142E-003	4	..........a	-327.66
	231	46.4	6.99996E-001	1.20455E-010	0.00000E+000	7.00000E-001	1.01292E-003	4	..........a	-327.66
	234	47	6.69949E-001	7.43796E-011	0.00000E+000	6.70000E-001	1.01922E-003	4	..........a	-327.66
	237	47.6	6.39895E-001	3.94243E-011	0.00000E+000	6.40000E-001	1.00222E-003	4	..........a	-327.66
	240	48.2	6.10017E-001	9.54717E-012	0.00000E+000	6.10000E-001	9.91622E-004	4	..........a	-327.66
	243	48.8	5.80007E-001	-1.47848E-011	0.00000E+000	5.80000E-001	1.00522E-003	4	..........a	-327.66
	246	49.4	5.49980E-001	-3.75856E-011	0.00000E+000	5.50000E-001	1.01422E-003	4	..........a	-327.66
	249	50	5.19979E-001	-5.48933E-011	0.00000E+000	5.20000E-001	1.02722E-003	4	..........a	-327.66
	252	50.6	4.90005E-001	-7.09049E-011	0.00000E+000	4.90000E-001	9.98622E-004	4	..........a	-327.66
	255	51.2	4.60017E-001	-8.60785E-011	0.00000E+000	4.60000E-001	1.01692E-003	4	..........a	-327.66
	258	51.8	4.29970E-001	-9.98060E-011	0.00000E+000	4.30000E-001	1.01352E-003	4	..........a	-327.66
	261	52.4	4.00084E-001	-1.11975E-010	0.00000E+000	4.00000E-001	9.93622E-004	4	..........a	-327.66
	264	53	3.70022E-001	-1.22965E-010	0.00000E+000	3.70000E-001	1.01962E-003	4	..........a	-327.66
	267	53.6	3.40056E-001	-1.34056E-010	0.00000E+000	3.40000E-001	1.01252E-003	4	..........a	-327.66
	270	54.2	3.09962E-001	-1.44673E-010	0.00000E+000	3.10000E-001	1.00052E-003	4	..........a	-327.66
	273	54.8	2.80019E-001	-1.53477E-010	0.00000E+000	2.80000E-001	1.03812E-003	4	..........a	-327.66
	276	55.4	2.50028E-001	-1.62735E-010	0.00000E+000	2.50000E-001	9.84222E-004	4	..........a	-327.66
	279	56	2.20032E-001	-1.69307E-010	0.00000E+000	2.20000E-001	1.01612E-003	4	..........a	-327.66
	282	56.6	1.90030E-001	-1.76035E-010	0.00000E+000	1.90000E-001	9.85022E-004	4	..........a	-327.66
	285	57.2	1.60032E-001	-1.81484E-010	0.00000E+000	1.60000E-001	1.00392E-003	4	..........a	-327.66
	288	57.8	1.30106E-001	-1.86786E-010	0.00000E+000	1.30000E-001	1.02142E-003	4	..........a	-327.66
	291	58.4	9.99787E-002	-1.92355E-010	0.00000E+000	1.00000E-001	1.02552E-003	4	..........a	-327.66
	294	59	6.99605E-002	-1.99003E-010	0.00000E+000	7.00000E-002	9.95622E-004	4	..........a	-327.66
	297	59.6	4.00413E-002	-2.06174E-010	0.00000E+000	4.00000E-002	1.02262E-003	4	..........a	-327.66
	300	60.2	1.01025E-002	-2.15743E-010	0.00000E+000	1.00000E-002	1.01452E-003	4	..........a	-327.66
	303	60.8	-1.99191E-002	-2.27818E-010	0.00000E+000	-2.00000E-002	1.01952E-003	4	..........a	-327.66
	306	61.4	-5.00275E-002	-2.40760E-010	0.00000E+000	-5.00000E-002	1.03362E-003	4	..........a	-327.66
	309	62	-7.99971E-002	-2.56424E-010	0.00000E+000	-8.00000E-002	1.01052E-003	4	..........a	-327.66
	312	62.6	-1.10004E-001	-2.71746E-010	0.00000E+000	-1.10000E-001	1.00422E-003	4	..........a	-327.66
	315	63.2	-1.39892E-001	-2.91345E-010	0.00000E+000	-1.40000E-001	1.01932E-003	4	..........a	-327.66
	318	63.8	-1.69915E-001	-3.06512E-010	0.00000E+000	-1.70000E-001	1.01802E-003	4	..........a	-327.66
	321	64.4	-1.99916E-001	-3.25483E-010	0.00000E+000	-2.00000E-001	1.01442E-003	4	..........a	-327.66
	324	65	-2.29892E-001	-3.44833E-010	0.00000E+000	-2.30000E-001	1.01262E-003	4	..........a	-327.66
	327	65.6	-2.59823E-001	-3.56092E-010	0.00000E+000	-2.60000E-001	1.02282E-003	4	..........a	-327.66
	330	66.2	-2.89872E-001	-3.89758E-010	0.00000E+000	-2.90000E-001	1.02412E-003	4	..........a	-327.66
	333	66.8	-3.19912E-001	-4.17448E-010	0.00000E+000	-3.20000E-001	9.99022E-004	4	..........a	-327.66
	336	67.4	-3.49871E-001	-4.44331E-010	0.00000E+000	-3.50000E-001	1.01662E-003	4	..........a	-327.66
	339	68	-3.79849E-001	-4.73581E-010	0.00000E+000	-3.80000E-001	1.00782E-003	4	..........a	-327.66
	342	68.6	-4.09889E-001	-5.08289E-010	0.00000E+000	-4.10000E-001	1.01762E-003	4	..........a	-327.66
	345	69.2	-4.39874E-001	-5.48207E-010	0.00000E+000	-4.40000E-001	9.92622E-004	4	..........a	-327.66
	348	69.8	-4.69835E-001	-5.90326E-010	0.00000E+000	-4.70000E-001	9.90922E-004	4	..........a	-327.66
	351	70.4	-4.99852E-001	-6.41511E-010	0.00000E+000	-5.00000E-001	1.01742E-003	4	..........a	-327.66
	354	71	-5.29889E-001	-7.02610E-010	0.00000E+000	-5.30000E-001	1.01262E-003	4	..........a	-327.66
	357	71.6	-5.59956E-001	-7.75989E-010	0.00000E+000	-5.60000E-001	9.71822E-004	4	..........a	-327.66
	360	72.2	-5.89836E-001	-8.64075E-010	0.00000E+000	-5.90000E-001	1.00472E-003	4	..........a	-327.66
[...]
	983	196.8	2.00915E-002	2.18265E-010	0.00000E+000	2.00000E-002	9.88122E-004	4	..........a	-327.66
	986	197.4	5.00743E-002	2.19418E-010	0.00000E+000	5.00000E-002	1.00902E-003	4	..........a	-327.66
	989	198	8.00273E-002	2.21882E-010	0.00000E+000	8.00000E-002	1.00742E-003	4	..........a	-327.66
	992	198.6	1.10036E-001	2.27901E-010	0.00000E+000	1.10000E-001	1.00782E-003	4	..........a	-327.66
	995	199.2	1.40090E-001	2.33630E-010	0.00000E+000	1.40000E-001	1.01362E-003	4	..........a	-327.66
	998	199.8	1.70078E-001	2.40426E-010	0.00000E+000	1.70000E-001	1.01972E-003	4	..........a	-327.66
	1001	200.4	1.99962E-001	2.49306E-010	0.00000E+000	2.00000E-001	9.95922E-004	4	..........a	-327.66
	1004	201	2.29946E-001	2.58974E-010	0.00000E+000	2.30000E-001	1.02672E-003	4	..........a	-327.66
	1007	201.6	2.59979E-001	2.69084E-010	0.00000E+000	2.60000E-001	1.02312E-003	4	..........a	-327.66
	1010	202.2	2.90002E-001	2.78962E-010	0.00000E+000	2.90000E-001	9.99222E-004	4	..........a	-327.66
	1013	202.8	3.19961E-001	2.87471E-010	0.00000E+000	3.20000E-001	9.94122E-004	4	..........a	-327.66
	1016	203.4	3.49941E-001	2.94371E-010	0.00000E+000	3.50000E-001	1.00232E-003	4	..........a	-327.66
	1019	204	3.79997E-001	3.01068E-010	0.00000E+000	3.80000E-001	1.02232E-003	4	..........a	-327.66
	1022	204.6	4.09923E-001	3.06889E-010	0.00000E+000	4.10000E-001	1.00382E-003	4	..........a	-327.66
	1025	205.2	4.39926E-001	3.12431E-010	0.00000E+000	4.40000E-001	1.03422E-003	4	..........a	-327.66
	1028	205.8	4.69949E-001	3.18327E-010	0.00000E+000	4.70000E-001	9.93722E-004	4	..........a	-327.66
	1031	206.4	5.00006E-001	3.25483E-010	0.00000E+000	5.00000E-001	1.02882E-003	4	..........a	-327.66
	1034	207	5.29966E-001	3.33802E-010	0.00000E+000	5.30000E-001	9.95922E-004	4	..........a	-327.66
	1037	207.6	5.60006E-001	3.43813E-010	0.00000E+000	5.60000E-001	9.95722E-004	4	..........a	-327.66
	1040	208.2	5.89916E-001	3.55253E-010	0.00000E+000	5.90000E-001	1.02872E-003	4	..........a	-327.66
	1043	208.8	6.19989E-001	3.71422E-010	0.00000E+000	6.20000E-001	1.01872E-003	4	..........a	-327.66
	1046	209.4	6.49936E-001	3.89064E-010	0.00000E+000	6.50000E-001	1.01002E-003	4	..........a	-327.66
	1049	210	6.80021E-001	4.11700E-010	0.00000E+000	6.80000E-001	1.01042E-003	4	..........a	-327.66
	1052	210.6	7.09922E-001	4.41015E-010	0.00000E+000	7.10000E-001	9.96122E-004	4	..........a	-327.66
	1055	211.2	7.40010E-001	4.76857E-010	0.00000E+000	7.40000E-001	1.02112E-003	4	..........a	-327.66
	1058	211.8	7.69906E-001	5.26982E-010	0.00000E+000	7.70000E-001	1.00092E-003	4	..........a	-327.66
	1061	212.4	7.99959E-001	5.91687E-010	0.00000E+000	8.00000E-001	1.00922E-003	4	..........a	-327.66
CURVE5	TABLE
	Pt	T	Vf	Im	Vu	Sig	Ach	IERange	Over	Temp
	#	s	V vs. Ref.	A	V	V	V	#	bits	deg C
	1062	212.6	7.89953E-001	4.55874E-010	0.00000E+000	7.90000E-001	1.01432E-003	4	..........a	-327.66
	1063	212.8	7.79976E-001	3.69239E-010	0.00000E+000	7.80000E-001	1.01632E-003	4	..........a	-327.66
	1064	213	7.69861E-001	3.06378E-010	0.00000E+000	7.70000E-001	1.00842E-003	4	..........a	-327.66
	1065	213.2	7.59892E-001	2.58010E-010	0.00000E+000	7.60000E-001	1.00702E-003	4	..........a	-327.66
	1066	213.4	7.49972E-001	2.18056E-010	0.00000E+000	7.50000E-001	1.01212E-003	4	..........a	-327.66
	1067	213.6	7.40014E-001	1.86161E-010	0.00000E+000	7.40000E-001	1.02172E-003	4	..........a	-327.66
	1068	213.8	7.29901E-001	1.60217E-010	0.00000E+000	7.30000E-001	1.00112E-003	4	..........a	-327.66
	1069	214	7.19955E-001	1.35548E-010	0.00000E+000	7.20000E-001	1.00932E-003	4	..........a	-327.66
	1070	214.2	7.09856E-001	1.14428E-010	0.00000E+000	7.10000E-001	1.00692E-003	4	..........a	-327.66
	1071	214.4	6.99979E-001	9.44424E-011	0.00000E+000	7.00000E-001	9.82122E-004	4	..........a	-327.66
	1072	214.6	6.89873E-001	7.97869E-011	0.00000E+000	6.90000E-001	9.86922E-004	4	..........a	-327.66
	1073	214.8	6.79790E-001	6.40683E-011	0.00000E+000	6.80000E-001	1.00192E-003	4	..........a	-327.66
	1074	215	6.69907E-001	5.29588E-011	0.00000E+000	6.70000E-001	9.86522E-004	4	..........a	-327.66
	1075	215.2	6.60040E-001	4.10984E-011	0.00000E+000	6.60000E-001	9.99622E-004	4	..........a	-327.66
	1076	215.4	6.49892E-001	3.17650E-011	0.00000E+000	6.50000E-001	9.94822E-004	4	..........a	-327.66
	1077	215.6	6.39912E-001	1.96926E-011	0.00000E+000	6.40000E-001	1.03382E-003	4	..........a	-327.66
	1078	215.8	6.29953E-001	1.03122E-011	0.00000E+000	6.30000E-001	9.91922E-004	4	..........a	-327.66
	1079	216	6.19997E-001	2.49590E-012	0.00000E+000	6.20000E-001	1.00482E-003	4	..........a	-327.66
	1080	216.2	6.09998E-001	-6.92047E-012	0.00000E+000	6.10000E-001	1.00122E-003	4	..........a	-327.66
	1081	216.4	5.99898E-001	-1.38557E-011	0.00000E+000	6.00000E-001	9.92722E-004	4	..........a	-327.66
	1082	216.6	5.89970E-001	-2.18900E-011	0.00000E+000	5.90000E-001	9.93322E-004	4	..........a	-327.66
	1083	216.8	5.80004E-001	-2.95283E-011	0.00000E+000	5.80000E-001	1.01312E-003	4	..........a	-327.66
	1084	217	5.69972E-001	-3.64046E-011	0.00000E+000	5.70000E-001	1.00222E-003	4	..........a	-327.66
	1085	217.2	5.60007E-001	-4.05788E-011	0.00000E+000	5.60000E-001	1.01542E-003	4	..........a	-327.66
	1086	217.4	5.49953E-001	-4.72000E-011	0.00000E+000	5.50000E-001	9.94622E-004	4	..........a	-327.66
	1087	217.6	5.40032E-001	-5.40103E-011	0.00000E+000	5.40000E-001	9.89522E-004	4	..........a	-327.66
	1088	217.8	5.29986E-001	-5.90645E-011	0.00000E+000	5.30000E-001	9.97622E-004	4	..........a	-327.66
	1089	218	5.19951E-001	-6.55487E-011	0.00000E+000	5.20000E-001	1.00942E-003	4	..........a	-327.66
	1090	218.2	5.09974E-001	-6.99389E-011	0.00000E+000	5.10000E-001	1.02502E-003	4	..........a	-327.66
	1091	218.4	5.00087E-001	-7.48061E-011	0.00000E+000	5.00000E-001	1.02902E-003	4	..........a	-327.66
	1092	218.6	4.89939E-001	-8.12453E-011	0.00000E+000	4.90000E-001	1.01762E-003	4	..........a	-327.66
	1093	218.8	4.79915E-001	-8.59935E-011	0.00000E+000	4.80000E-001	1.02132E-003	4	..........a	-327.66
	1094	219	4.69971E-001	-9.00256E-011	0.00000E+000	4.70000E-001	1.01072E-003	4	..........a	-327.66
	1095	219.2	4.60002E-001	-9.70189E-011	0.00000E+000	4.60000E-001	1.02782E-003	4	..........a	-327.66
	1096	219.4	4.50020E-001	-1.01140E-010	0.00000E+000	4.50000E-001	1.00812E-003	4	..........a	-327.66
	1097	219.6	4.39989E-001	-1.05645E-010	0.00000E+000	4.40000E-001	9.94822E-004	4	..........a	-327.66
	1098	219.8	4.29923E-001	-1.10592E-010	0.00000E+000	4.30000E-001	1.00172E-003	4	..........a	-327.66
	1099	220	4.20026E-001	-1.15467E-010	0.00000E+000	4.20000E-001	1.01442E-003	4	..........a	-327.66
	1100	220.2	4.09993E-001	-1.19836E-010	0.00000E+000	4.10000E-001	9.82422E-004	4	..........a	-327.66
	1101	220.4	4.00022E-001	-1.24382E-010	0.00000E+000	4.00000E-001	1.01052E-003	4	..........a	-327.66
	1102	220.6	3.89945E-001	-1.27924E-010	0.00000E+000	3.90000E-001	1.01672E-003	4	..........a	-327.66
	1103	220.8	3.80016E-001	-1.33329E-010	0.00000E+000	3.80000E-001	1.01792E-003	4	..........a	-327.66
	1104	221	3.70018E-001	-1.36960E-010	0.00000E+000	3.70000E-001	9.91022E-004	4	..........a	-327.66
	1105	221.2	3.59876E-001	-1.41904E-010	0.00000E+000	3.60000E-001	1.00302E-003	4	..........a	-327.66
	1106	221.4	3.49979E-001	-1.46096E-010	0.00000E+000	3.50000E-001	1.03122E-003	4	..........a	-327.66
	1107	221.6	3.40057E-001	-1.49988E-010	0.00000E+000	3.40000E-001	1.01702E-003	4	..........a	-327.66
	1108	221.8	3.30050E-001	-1.54324E-010	0.00000E+000	3.30000E-001	9.89122E-004	4	..........a	-327.66
	1109	222	3.20002E-001	-1.58676E-010	0.00000E+000	3.20000E-001	1.00752E-003	4	..........a	-327.66
	1110	222.2	3.09971E-001	-1.61995E-010	0.00000E+000	3.10000E-001	9.95022E-004	4	..........a	-327.66
	1111	222.4	3.00027E-001	-1.65382E-010	0.00000E+000	3.00000E-001	1.03612E-003	4	..........a	-327.66
	1112	222.6	2.90017E-001	-1.68851E-010	0.00000E+000	2.90000E-001	1.00382E-003	4	..........a	-327.66
	1113	222.8	2.79993E-001	-1.72025E-010	0.00000E+000	2.80000E-001	1.02152E-003	4	..........a	-327.66
	1114	223	2.69967E-001	-1.75253E-010	0.00000E+000	2.70000E-001	1.00032E-003	4	..........a	-327.66
	1115	223.2	2.60026E-001	-1.78863E-010	0.00000E+000	2.60000E-001	1.02232E-003	4	..........a	-327.66
	1116	223.4	2.50071E-001	-1.81100E-010	0.00000E+000	2.50000E-001	1.01732E-003	4	..........a	-327.66
	1117	223.6	2.39990E-001	-1.84030E-010	0.00000E+000	2.40000E-001	1.02192E-003	4	..........a	-327.66
	1118	223.8	2.29964E-001	-1.86467E-010	0.00000E+000	2.30000E-001	1.00852E-003	4	..........a	-327.66
	1119	224	2.19963E-001	-1.89296E-010	0.00000E+000	2.20000E-001	1.01382E-003	4	..........a	-327.66
	1120	224.2	2.09987E-001	-1.90425E-010	0.00000E+000	2.10000E-001	1.00632E-003	4	..........a	-327.66