File: data/raw/batch_data/20240321_ZZC_GM0016_HL03_E14_CV50.DTA
EXPLAIN
TAG	CV
TITLE	LABEL	Cyclic Voltammetry	Test &Identifier
DATE	LABEL	3/21/2024	Date
TIME	LABEL	19:37:25	Time
NOTES	NOTES	1	&Notes...

PSTAT	PSTAT	REF600P-43058	Potentiostat
VINIT	POTEN	0.00000E+000	T	Initial &E (V)
VLIMIT1	POTEN	-6.00000E-001	F	Scan Limit &1 (V)
VLIMIT2	POTEN	8.00000E-001	F	Scan Limit &2 (V)
VFINAL	POTEN	0.00000E+000	T	Final &E (V)
SCANRATE	QUANT	4.99999E+001	&Scan Rate (mV/s)
STEPSIZE	QUANT	1.00000E+001	St&ep Size (mV)
CYCLES	IQUANT	4	C&ycles (#)
IMODE	SELECTOR	1	I/E Range &Mode
IRANGE	QUANT	1.00000E-005	&Max Current (mA)
AREA	QUANT	1.00000E+000	Electrode &Area (cm^2)
ELECTRODETYPE	SELECTOR	0	Electrode Type
STRIPPING	TOGGLE	F	Used for Stripping
POLARITY	TOGGLE	F	Signal Polarity
CONDIT	TWOPARAM	F	1.50000E+001	0.00000E+000	Conditionin&g	Time(s)	E(V)
DELAY	TWOPARAM	T	1.00000E+001	0.00000E+000	Init. De&lay	Time(s)	Stab.(mV/s)
EQDELAY	QUANT	1.00000E+001	Equil. &Time (s)
IRCOMP	SELECTOR	0	IRCom&p
PFCOR	QUANT	5.00000E+001	PF Corr. (ohm)
SAMPLINGMODE	SELECTOR	1	Sampling &Mode
OCVCURVE	TABLE	39
	Pt	T	Vf	Vm	Ach	Over	Temp
	#	s	V vs. Ref.	V	V	bits	deg C
	0	0.258333	3.49400E-001	3.49400E-001	2.36889E-004	..........a	-327.66
	1	0.516667	3.49403E-001	3.49553E-001	2.33756E-004	..........a	-327.66
	2	0.775	3.49419E-001	3.49578E-001	2.56022E-004	..........a	-327.66
	3	1.03333	3.49457E-001	3.49662E-001	2.43022E-004	..........a	-327.66
	4	1.29167	3.49516E-001	3.49843E-001	2.29489E-004	..........a	-327.66
	5	1.55	3.49598E-001	3.50053E-001	2.27556E-004	..........a	-327.66
	6	1.80833	3.49712E-001	3.50354E-001	2.40422E-004	..........a	-327.66
	7	2.06667	3.49871E-001	3.50566E-001	2.38356E-004	..........a	-327.66
	8	2.325	3.50073E-001	3.50767E-001	2.39089E-004	..........a	-327.66
	9	2.58333	3.50303E-001	3.51175E-001	2.27756E-004	..........a	-327.66
	10	2.84167	3.50549E-001	3.51249E-001	2.48889E-004	..........a	-327.66
	11	3.1	3.50799E-001	3.51412E-001	2.25622E-004	..........a	-327.66
	12	3.35833	3.51032E-001	3.51612E-001	2.45622E-004	..........a	-327.66
	13	3.61667	3.51239E-001	3.51892E-001	2.44689E-004	..........a	-327.66
	14	3.875	3.51434E-001	3.52127E-001	2.28289E-004	..........a	-327.66
	15	4.13333	3.51640E-001	3.52355E-001	2.33756E-004	..........a	-327.66
	16	4.39167	3.51868E-001	3.52750E-001	2.31489E-004	..........a	-327.66
	17	4.65	3.52115E-001	3.52831E-001	2.48822E-004	..........a	-327.66
	18	4.90833	3.52370E-001	3.52986E-001	2.22222E-004	..........a	-327.66
	19	5.16667	3.52608E-001	3.53159E-001	2.40756E-004	..........a	-327.66
	20	5.425	3.52812E-001	3.53420E-001	2.39089E-004	..........a	-327.66
	21	5.68333	3.52999E-001	3.53640E-001	2.40889E-004	..........a	-327.66
	22	5.94167	3.53190E-001	3.53836E-001	2.27289E-004	..........a	-327.66
	23	6.2	3.53397E-001	3.54121E-001	2.26489E-004	..........a	-327.66
	24	6.45833	3.53618E-001	3.54400E-001	2.54956E-004	..........a	-327.66
	25	6.71667	3.53851E-001	3.54456E-001	2.45022E-004	..........a	-327.66
	26	6.975	3.54082E-001	3.54626E-001	2.11822E-004	..........a	-327.66
	27	7.23333	3.54289E-001	3.54838E-001	2.16956E-004	..........a	-327.66
	28	7.49167	3.54473E-001	3.55084E-001	2.21089E-004	..........a	-327.66
	29	7.75	3.54653E-001	3.55287E-001	2.43356E-004	..........a	-327.66
	30	8.00833	3.54846E-001	3.55479E-001	2.29022E-004	..........a	-327.66
	31	8.26667	3.55054E-001	3.55826E-001	2.29956E-004	..........a	-327.66
	32	8.525	3.55276E-001	3.55997E-001	2.13489E-004	..........a	-327.66
	33	8.78333	3.55508E-001	3.56083E-001	2.46756E-004	..........a	-327.66
	34	9.04167	3.55731E-001	3.56253E-001	2.38156E-004	..........a	-327.66
	35	9.3	3.55928E-001	3.56449E-001	2.42422E-004	..........a	-327.66
	36	9.5583	3.56101E-001	3.56683E-001	2.17422E-004	..........a	-327.66
	37	9.8167	3.56272E-001	3.56886E-001	2.27756E-004	..........a	-327.66
	38	10.075	3.56457E-001	3.57056E-001	2.30422E-004	..........a	-327.66
EOC	QUANT	0.3564574	Open Circuit (V)
PSTATMODEL	IQUANT	7	Pstat Model
PSTATSECTION	LABEL	REF600P-43058	Pstat Section
PSTATSERIALNO	LABEL	43058	Pstat Serial Number
CTRLMODE	IQUANT	1	Control Mode
ELECTROMETER	IQUANT	0	RE=0 or CS=1
IESTAB	IQUANT	2	I/E Stability
CASPEED	IQUANT	4	Control Amp Speed
CONVENTION	IQUANT	1	Current Convention
ICHRANGE	IQUANT	2	Ich Range
ICHRANGEMODE	TOGGLE	F	Ich Auto Range
ICHOFFSETENABLE	TOGGLE	F	Ich Offset Enable
ICHOFFSET	QUANT	0	Ich Offset (V)
ICHFILTER	IQUANT	2	Ich Filter
VCHRANGE	IQUANT	2	Vch Range
VCHRANGEMODE	TOGGLE	F	Vch Auto Range
VCHOFFSETENABLE	TOGGLE	F	Vch Offset Enable
VCHOFFSET	QUANT	0	Vch Offset (V)
VCHFILTER	IQUANT	2	Vch Filter
ACHRANGE	IQUANT	2	Ach Range
ACHOFFSETENABLE	TOGGLE	F	Ach Offset Enable
ACHOFFSET	QUANT	0	Ach Offset (V)
ACHFILTER	IQUANT	1	Ach Filter
IERANGELOWERLIMIT	IQUANT	1	I/E Range Lower Limit
IERANGEMODE	TOGGLE	F	I/E AutoRange
IERANGE	IQUANT	4	I/E Range
POSFEEDENABLE	TOGGLE	F	Positive Feedback IR Comp
POSFEEDRESISTANCE	QUANT	0	Positive Feedback Resistance (ohm)
ACHSELECT	IQUANT	4	Ach Select
SENSECABLEID	IQUANT	7	Sense Cable ID
PWRCABLEID	IQUANT	7	Power Cable ID
DCCALDATE	LABEL	12/18/2023	DC Calibration Date
ACCALDATE	LABEL	12/18/2023	AC Calibration Date
THERMOSELECT	IQUANT	1	Thermo Select
FRAMEWORKVERSION	LABEL	7.8.4	Framework Version
INSTRUMENTVERSION	LABEL	4.42	Instrument Version
CURVE1	TABLE
	Pt	T	Vf	Im	Vu	Sig	Ach	IERange	Over	Temp
	#	s	V vs. Ref.	A	V	V	V	#	bits	deg C
	0	0.2	3.56356E-001	1.97796E-011	0.00000E+000	3.56450E-001	1.00652E-003	4	..........a	-327.66
	3	0.8	3.26412E-001	-3.60996E-011	0.00000E+000	3.26450E-001	1.01732E-003	4	..........a	-327.66
	6	1.4	2.96316E-001	-4.55969E-011	0.00000E+000	2.96450E-001	1.02752E-003	4	..........a	-327.66
	9	2	2.66470E-001	-5.26262E-011	0.00000E+000	2.66450E-001	1.03192E-003	4	..........a	-327.66
	12	2.6	2.36422E-001	-5.80424E-011	0.00000E+000	2.36450E-001	1.05232E-003	4	..........a	-327.66
	15	3.2	2.06370E-001	-6.63157E-011	0.00000E+000	2.06450E-001	9.96322E-004	4	..........a	-327.66
	18	3.8	1.76501E-001	-6.93479E-011	0.00000E+000	1.76450E-001	1.02102E-003	4	..........a	-327.66
	21	4.4	1.46445E-001	-7.24080E-011	0.00000E+000	1.46450E-001	9.94122E-004	4	..........a	-327.66
	24	5	1.16398E-001	-7.60361E-011	0.00000E+000	1.16450E-001	1.01692E-003	4	..........a	-327.66
	27	5.6	8.64828E-002	-8.09893E-011	0.00000E+000	8.64500E-002	1.03782E-003	4	..........a	-327.66
	30	6.2	5.64770E-002	-8.33644E-011	0.00000E+000	5.64500E-002	1.02472E-003	4	..........a	-327.66
	33	6.8	2.64512E-002	-8.60765E-011	0.00000E+000	2.64500E-002	1.05202E-003	4	..........a	-327.66
	36	7.4	-3.57696E-003	-8.99286E-011	0.00000E+000	-3.54999E-003	1.02782E-003	4	..........a	-327.66
	39	8	-3.35926E-002	-9.72199E-011	0.00000E+000	-3.35500E-002	1.02412E-003	4	..........a	-327.66
	42	8.6	-6.34988E-002	-1.00962E-010	0.00000E+000	-6.35500E-002	1.02602E-003	4	..........a	-327.66
	45	9.2	-9.35004E-002	-1.10539E-010	0.00000E+000	-9.35500E-002	1.01682E-003	4	..........a	-327.66
	48	9.8	-1.23568E-001	-1.20742E-010	0.00000E+000	-1.23550E-001	1.02732E-003	4	..........a	-327.66
	51	10.4	-1.53599E-001	-1.31508E-010	0.00000E+000	-1.53550E-001	1.01692E-003	4	..........a	-327.66
	54	11	-1.83509E-001	-1.47222E-010	0.00000E+000	-1.83550E-001	9.93922E-004	4	..........a	-327.66
	57	11.6	-2.13546E-001	-1.64085E-010	0.00000E+000	-2.13550E-001	1.03562E-003	4	..........a	-327.66
	60	12.2	-2.43523E-001	-1.83674E-010	0.00000E+000	-2.43550E-001	1.03852E-003	4	..........a	-327.66
	63	12.8	-2.73501E-001	-2.09883E-010	0.00000E+000	-2.73550E-001	1.03572E-003	4	..........a	-327.66
	66	13.4	-3.03471E-001	-2.41822E-010	0.00000E+000	-3.03550E-001	1.00842E-003	4	..........a	-327.66
	69	14	-3.33528E-001	-2.88396E-010	0.00000E+000	-3.33550E-001	1.02632E-003	4	..........a	-327.66
	72	14.6	-3.63483E-001	-3.29780E-010	0.00000E+000	-3.63550E-001	1.00162E-003	4	..........a	-327.66
	75	15.2	-3.93463E-001	-3.85443E-010	0.00000E+000	-3.93550E-001	1.00492E-003	4	..........a	-327.66
	78	15.8	-4.23442E-001	-4.52243E-010	0.00000E+000	-4.23550E-001	1.02692E-003	4	..........a	-327.66
	81	16.4	-4.53423E-001	-5.18875E-010	0.00000E+000	-4.53550E-001	1.01802E-003	4	..........a	-327.66
	84	17	-4.83471E-001	-5.96685E-010	0.00000E+000	-4.83550E-001	1.04382E-003	4	..........a	-327.66
	87	17.6	-5.13483E-001	-6.84714E-010	0.00000E+000	-5.13550E-001	1.00692E-003	4	..........a	-327.66
	90	18.2	-5.43436E-001	-7.92682E-010	0.00000E+000	-5.43550E-001	1.02742E-003	4	..........a	-327.66
	93	18.8	-5.73441E-001	-9.15951E-010	0.00000E+000	-5.73550E-001	1.04582E-003	4	..........a	-327.66
	96	19.4	-6.03442E-001	-1.08248E-009	0.00000E+000	-6.03550E-001	1.03112E-003	4	..........a	-327.66
	99	20	-5.73431E-001	-5.50549E-010	0.00000E+000	-5.73550E-001	1.00732E-003	4	..........a	-327.66
	102	20.6	-5.43447E-001	-3.45724E-010	0.00000E+000	-5.43550E-001	1.00082E-003	4	..........a	-327.66
	105	21.2	-5.13515E-001	-2.19428E-010	0.00000E+000	-5.13550E-001	1.03822E-003	4	..........a	-327.66
	108	21.8	-4.83519E-001	-1.29706E-010	0.00000E+000	-4.83550E-001	1.02522E-003	4	..........a	-327.66
	111	22.4	-4.53458E-001	-6.24446E-011	0.00000E+000	-4.53550E-001	1.00612E-003	4	..........a	-327.66
	114	23	-4.23448E-001	-9.57157E-012	0.00000E+000	-4.23550E-001	1.00272E-003	4	..........a	-327.66
	117	23.6	-3.93519E-001	2.90359E-011	0.00000E+000	-3.93550E-001	1.03732E-003	4	..........a	-327.66
	120	24.2	-3.63524E-001	6.04911E-011	0.00000E+000	-3.63550E-001	1.02312E-003	4	..........a	-327.66
	123	24.8	-3.33496E-001	8.38010E-011	0.00000E+000	-3.33550E-001	1.02192E-003	4	..........a	-327.66
	126	25.4	-3.03471E-001	9.82576E-011	0.00000E+000	-3.03550E-001	9.97922E-004	4	..........a	-327.66
	129	26	-2.73516E-001	1.10957E-010	0.00000E+000	-2.73550E-001	1.01512E-003	4	..........a	-327.66
	132	26.6	-2.43489E-001	1.20080E-010	0.00000E+000	-2.43550E-001	1.01292E-003	4	..........a	-327.66
	135	27.2	-2.13514E-001	1.23666E-010	0.00000E+000	-2.13550E-001	1.03872E-003	4	..........a	-327.66
	138	27.8	-1.83528E-001	1.24922E-010	0.00000E+000	-1.83550E-001	1.02112E-003	4	..........a	-327.66
	141	28.4	-1.53532E-001	1.27919E-010	0.00000E+000	-1.53550E-001	1.01332E-003	4	..........a	-327.66
	144	29	-1.23605E-001	1.27759E-010	0.00000E+000	-1.23550E-001	1.02332E-003	4	..........a	-327.66
	147	29.6	-9.34823E-002	1.25553E-010	0.00000E+000	-9.35500E-002	9.95822E-004	4	..........a	-327.66
	150	30.2	-6.34322E-002	1.25803E-010	0.00000E+000	-6.35500E-002	1.00982E-003	4	..........a	-327.66
	153	30.8	-3.35204E-002	1.28316E-010	0.00000E+000	-3.35500E-002	1.00902E-003	4	..........a	-327.66
	156	31.4	-3.61461E-003	1.29622E-010	0.00000E+000	-3.54999E-003	1.02792E-003	4	..........a	-327.66
	159	32	2.64707E-002	1.32712E-010	0.00000E+000	2.64500E-002	1.01702E-003	4	..........a	-327.66
	162	32.6	5.65099E-002	1.36492E-010	0.00000E+000	5.64500E-002	1.03352E-003	4	..........a	-327.66
	165	33.2	8.64852E-002	1.40379E-010	0.00000E+000	8.64500E-002	9.92322E-004	4	..........a	-327.66
	168	33.8	1.16277E-001	1.52908E-010	0.00000E+000	1.16450E-001	1.01702E-003	4	..........a	-327.66
	171	34.4	1.46471E-001	1.54507E-010	0.00000E+000	1.46450E-001	1.03252E-003	4	..........a	-327.66
	174	35	1.76500E-001	1.64687E-010	0.00000E+000	1.76450E-001	1.00182E-003	4	..........a	-327.66
	177	35.6	2.06397E-001	1.74390E-010	0.00000E+000	2.06450E-001	1.04242E-003	4	..........a	-327.66
	180	36.2	2.36414E-001	1.91548E-010	0.00000E+000	2.36450E-001	9.98922E-004	4	..........a	-327.66
	183	36.8	2.66476E-001	1.99171E-010	0.00000E+000	2.66450E-001	1.03072E-003	4	..........a	-327.66
	186	37.4	2.95820E-001	2.15884E-010	0.00000E+000	2.96450E-001	1.01772E-003	4	..........a	-327.66
	189	38	3.26365E-001	2.30683E-010	0.00000E+000	3.26450E-001	1.02982E-003	4	..........a	-327.66
	192	38.6	3.56376E-001	2.57623E-010	0.00000E+000	3.56450E-001	1.03882E-003	4	..........a	-327.66
	195	39.2	3.86409E-001	2.85238E-010	0.00000E+000	3.86450E-001	1.02052E-003	4	..........a	-327.66
	198	39.8	4.16404E-001	3.17821E-010	0.00000E+000	4.16450E-001	1.02722E-003	4	..........a	-327.66
	201	40.4	4.46430E-001	3.54409E-010	0.00000E+000	4.46450E-001	1.02242E-003	4	..........a	-327.66
	204	41	4.76334E-001	3.94839E-010	0.00000E+000	4.76450E-001	1.00932E-003	4	..........a	-327.66
	207	41.6	5.06447E-001	4.36592E-010	0.00000E+000	5.06450E-001	1.01902E-003	4	..........a	-327.66
	210	42.2	5.36422E-001	4.78305E-010	0.00000E+000	5.36450E-001	1.02162E-003	4	..........a	-327.66
	213	42.8	5.66407E-001	5.23380E-010	0.00000E+000	5.66450E-001	1.01512E-003	4	..........a	-327.66
	216	43.4	5.96394E-001	5.70276E-010	0.00000E+000	5.96450E-001	1.03162E-003	4	..........a	-327.66
	219	44	6.26415E-001	6.19579E-010	0.00000E+000	6.26450E-001	1.01422E-003	4	..........a	-327.66
	222	44.6	6.56385E-001	6.70400E-010	0.00000E+000	6.56450E-001	1.02182E-003	4	..........a	-327.66
	225	45.2	6.86359E-001	7.22836E-010	0.00000E+000	6.86450E-001	1.02602E-003	4	..........a	-327.66
	228	45.8	7.16295E-001	7.78480E-010	0.00000E+000	7.16450E-001	1.03052E-003	4	..........a	-327.66
	231	46.4	7.46409E-001	8.39983E-010	0.00000E+000	7.46450E-001	1.02522E-003	4	..........a	-327.66
	234	47	7.76347E-001	9.07114E-010	0.00000E+000	7.76450E-001	1.01512E-003	4	..........a	-327.66
	236	47.4	7.96338E-001	9.54680E-010	0.00000E+000	7.96450E-001	9.99522E-004	4	..........a	-327.66
CURVE2	TABLE
	Pt	T	Vf	Im	Vu	Sig	Ach	IERange	Over	Temp
	#	s	V vs. Ref.	A	V	V	V	#	bits	deg C
	237	47.6	7.89944E-001	7.32352E-010	0.00000E+000	7.90000E-001	1.02912E-003	4	..........a	-327.66
	240	48.2	7.59856E-001	3.14832E-010	0.00000E+000	7.60000E-001	1.01322E-003	4	..........a	-327.66
	243	48.8	7.29981E-001	1.36759E-010	0.00000E+000	7.30000E-001	1.02362E-003	4	..........a	-327.66
	246	49.4	6.99971E-001	4.44795E-011	0.00000E+000	7.00000E-001	1.03572E-003	4	..........a	-327.66
	249	50	6.69892E-001	-8.59753E-012	0.00000E+000	6.70000E-001	1.02092E-003	4	..........a	-327.66
	252	50.6	6.39906E-001	-4.43259E-011	0.00000E+000	6.40000E-001	1.03302E-003	4	..........a	-327.66
	255	51.2	6.09938E-001	-7.04209E-011	0.00000E+000	6.10000E-001	1.02052E-003	4	..........a	-327.66
	258	51.8	5.79983E-001	-9.00457E-011	0.00000E+000	5.80000E-001	1.03402E-003	4	..........a	-327.66
	261	52.4	5.49933E-001	-1.04202E-010	0.00000E+000	5.50000E-001	1.01052E-003	4	..........a	-327.66
	264	53	5.19948E-001	-1.16080E-010	0.00000E+000	5.20000E-001	9.95822E-004	4	..........a	-327.66
	267	53.6	4.89930E-001	-1.24946E-010	0.00000E+000	4.90000E-001	1.04402E-003	4	..........a	-327.66
	270	54.2	4.60009E-001	-1.28894E-010	0.00000E+000	4.60000E-001	1.04252E-003	4	..........a	-327.66
	273	54.8	4.29969E-001	-1.35110E-010	0.00000E+000	4.30000E-001	9.97922E-004	4	..........a	-327.66
	276	55.4	3.99921E-001	-1.37240E-010	0.00000E+000	4.00000E-001	1.02712E-003	4	..........a	-327.66
	279	56	3.69969E-001	-1.39482E-010	0.00000E+000	3.70000E-001	1.02642E-003	4	..........a	-327.66
	282	56.6	3.40025E-001	-1.40506E-010	0.00000E+000	3.40000E-001	1.04542E-003	4	..........a	-327.66
	285	57.2	3.09956E-001	-1.41334E-010	0.00000E+000	3.10000E-001	1.03962E-003	4	..........a	-327.66
	288	57.8	2.79925E-001	-1.42278E-010	0.00000E+000	2.80000E-001	1.03882E-003	4	..........a	-327.66
	291	58.4	2.49973E-001	-1.42476E-010	0.00000E+000	2.50000E-001	1.05072E-003	4	..........a	-327.66
	294	59	2.19976E-001	-1.43065E-010	0.00000E+000	2.20000E-001	1.04642E-003	4	..........a	-327.66
	297	59.6	1.89996E-001	-1.42096E-010	0.00000E+000	1.90000E-001	1.01442E-003	4	..........a	-327.66
	300	60.2	1.59913E-001	-1.42276E-010	0.00000E+000	1.60000E-001	1.03652E-003	4	..........a	-327.66
	303	60.8	1.30006E-001	-1.41223E-010	0.00000E+000	1.30000E-001	9.94022E-004	4	..........a	-327.66
	306	61.4	9.99781E-002	-1.41318E-010	0.00000E+000	1.00000E-001	1.04452E-003	4	..........a	-327.66
	309	62	6.99575E-002	-1.42506E-010	0.00000E+000	7.00000E-002	1.02112E-003	4	..........a	-327.66
	312	62.6	3.99443E-002	-1.45667E-010	0.00000E+000	4.00000E-002	1.02432E-003	4	..........a	-327.66
	315	63.2	1.00332E-002	-1.50511E-010	0.00000E+000	1.00000E-002	1.01462E-003	4	..........a	-327.66
	318	63.8	-1.99701E-002	-1.58463E-010	0.00000E+000	-2.00000E-002	1.03642E-003	4	..........a	-327.66
	321	64.4	-5.00242E-002	-1.67144E-010	0.00000E+000	-5.00000E-002	1.02552E-003	4	..........a	-327.66
	324	65	-8.00207E-002	-1.78954E-010	0.00000E+000	-8.00000E-002	1.01872E-003	4	..........a	-327.66
	327	65.6	-1.10008E-001	-1.92555E-010	0.00000E+000	-1.10000E-001	1.02382E-003	4	..........a	-327.66
	330	66.2	-1.39987E-001	-2.08590E-010	0.00000E+000	-1.40000E-001	1.02942E-003	4	..........a	-327.66
	333	66.8	-1.69993E-001	-2.28289E-010	0.00000E+000	-1.70000E-001	1.01912E-003	4	..........a	-327.66
	336	67.4	-2.00024E-001	-2.51781E-010	0.00000E+000	-2.00000E-001	1.01222E-003	4	..........a	-327.66
	339	68	-2.29979E-001	-2.83626E-010	0.00000E+000	-2.30000E-001	1.03252E-003	4	..........a	-327.66
	342	68.6	-2.59885E-001	-3.09573E-010	0.00000E+000	-2.60000E-001	1.00872E-003	4	..........a	-327.66
	345	69.2	-2.89974E-001	-3.45496E-010	0.00000E+000	-2.90000E-001	1.03192E-003	4	..........a	-327.66
	348	69.8	-3.19919E-001	-3.89426E-010	0.00000E+000	-3.20000E-001	1.03252E-003	4	..........a	-327.66
	351	70.4	-3.49921E-001	-4.35963E-010	0.00000E+000	-3.50000E-001	9.91522E-004	4	..........a	-327.66
	354	71	-3.79913E-001	-4.86093E-010	0.00000E+000	-3.80000E-001	1.00372E-003	4	..........a	-327.66
	357	71.6	-4.09946E-001	-5.41761E-010	0.00000E+000	-4.10000E-001	1.00722E-003	4	..........a	-327.66
	360	72.2	-4.39881E-001	-5.98138E-010	0.00000E+000	-4.40000E-001	1.00762E-003	4	..........a	-327.66
[...]
	953	190.8	-4.29923E-001	-1.17648E-010	0.00000E+000	-4.30000E-001	1.01722E-003	4	..........a	-327.66
	956	191.4	-3.99956E-001	-5.78484E-011	0.00000E+000	-4.00000E-001	1.01532E-003	4	..........a	-327.66
	959	192	-3.70005E-001	-8.05451E-012	0.00000E+000	-3.70000E-001	1.02342E-003	4	..........a	-327.66
	962	192.6	-3.39980E-001	3.29131E-011	0.00000E+000	-3.40000E-001	1.01322E-003	4	..........a	-327.66
	965	193.2	-3.09957E-001	6.67034E-011	0.00000E+000	-3.10000E-001	1.02122E-003	4	..........a	-327.66
	968	193.8	-2.79959E-001	9.31704E-011	0.00000E+000	-2.80000E-001	9.99422E-004	4	..........a	-327.66
	971	194.4	-2.50030E-001	1.19539E-010	0.00000E+000	-2.50000E-001	1.01142E-003	4	..........a	-327.66
	974	195	-2.19930E-001	1.29890E-010	0.00000E+000	-2.20000E-001	1.00072E-003	4	..........a	-327.66
	977	195.6	-1.90189E-001	1.40029E-010	0.00000E+000	-1.90000E-001	1.03762E-003	4	..........a	-327.66
	980	196.2	-1.59988E-001	1.44028E-010	0.00000E+000	-1.60000E-001	1.03202E-003	4	..........a	-327.66
	983	196.8	-1.30082E-001	1.48271E-010	0.00000E+000	-1.30000E-001	9.86522E-004	4	..........a	-327.66
	986	197.4	-9.99442E-002	1.49862E-010	0.00000E+000	-1.00000E-001	1.04402E-003	4	..........a	-327.66
	989	198	-6.99840E-002	1.50140E-010	0.00000E+000	-7.00000E-002	9.98222E-004	4	..........a	-327.66
	992	198.6	-3.99760E-002	1.56318E-010	0.00000E+000	-4.00000E-002	1.00232E-003	4	..........a	-327.66
	995	199.2	-9.98536E-003	1.52701E-010	0.00000E+000	-1.00000E-002	1.00762E-003	4	..........a	-327.66
	998	199.8	2.00680E-002	1.57718E-010	0.00000E+000	2.00000E-002	1.02592E-003	4	..........a	-327.66
	1001	200.4	4.99822E-002	1.57351E-010	0.00000E+000	5.00000E-002	1.00252E-003	4	..........a	-327.66
	1004	201	8.00140E-002	1.56429E-010	0.00000E+000	8.00000E-002	1.03242E-003	4	..........a	-327.66
	1007	201.6	1.10026E-001	1.65023E-010	0.00000E+000	1.10000E-001	1.04002E-003	4	..........a	-327.66
	1010	202.2	1.40079E-001	1.71793E-010	0.00000E+000	1.40000E-001	9.92122E-004	4	..........a	-327.66
	1013	202.8	1.70005E-001	1.81974E-010	0.00000E+000	1.70000E-001	1.02282E-003	4	..........a	-327.66
	1016	203.4	2.00005E-001	1.93605E-010	0.00000E+000	2.00000E-001	1.02902E-003	4	..........a	-327.66
	1019	204	2.29966E-001	2.03847E-010	0.00000E+000	2.30000E-001	1.00502E-003	4	..........a	-327.66
	1022	204.6	2.60023E-001	2.15223E-010	0.00000E+000	2.60000E-001	1.02102E-003	4	..........a	-327.66
	1025	205.2	2.90000E-001	2.21308E-010	0.00000E+000	2.90000E-001	1.02192E-003	4	..........a	-327.66
	1028	205.8	3.19923E-001	2.27762E-010	0.00000E+000	3.20000E-001	1.01442E-003	4	..........a	-327.66
	1031	206.4	3.49946E-001	2.34805E-010	0.00000E+000	3.50000E-001	1.03382E-003	4	..........a	-327.66
	1034	207	3.79975E-001	2.40660E-010	0.00000E+000	3.80000E-001	1.04342E-003	4	..........a	-327.66
	1037	207.6	4.09935E-001	2.45310E-010	0.00000E+000	4.10000E-001	1.04272E-003	4	..........a	-327.66
	1040	208.2	4.39890E-001	2.48491E-010	0.00000E+000	4.40000E-001	1.02162E-003	4	..........a	-327.66
	1043	208.8	4.69929E-001	2.52842E-010	0.00000E+000	4.70000E-001	1.01442E-003	4	..........a	-327.66
	1046	209.4	4.99938E-001	2.60500E-010	0.00000E+000	5.00000E-001	1.01022E-003	4	..........a	-327.66
	1049	210	5.29935E-001	2.70290E-010	0.00000E+000	5.30000E-001	1.02142E-003	4	..........a	-327.66
	1052	210.6	5.59943E-001	2.82378E-010	0.00000E+000	5.60000E-001	1.01012E-003	4	..........a	-327.66
	1055	211.2	5.89890E-001	2.99610E-010	0.00000E+000	5.90000E-001	1.00792E-003	4	..........a	-327.66
	1058	211.8	6.19991E-001	3.23284E-010	0.00000E+000	6.20000E-001	1.00272E-003	4	..........a	-327.66
	1061	212.4	6.49906E-001	3.53323E-010	0.00000E+000	6.50000E-001	1.00332E-003	4	..........a	-327.66
	1064	213	6.79969E-001	3.95387E-010	0.00000E+000	6.80000E-001	1.03572E-003	4	..........a	-327.66
	1067	213.6	7.09885E-001	4.48492E-010	0.00000E+000	7.10000E-001	1.00052E-003	4	..........a	-327.66
	1070	214.2	7.39990E-001	5.17098E-010	0.00000E+000	7.40000E-001	1.01862E-003	4	..........a	-327.66
	1073	214.8	7.69885E-001	6.02270E-010	0.00000E+000	7.70000E-001	1.00512E-003	4	..........a	-327.66
	1076	215.4	7.99913E-001	7.11190E-010	0.00000E+000	8.00000E-001	1.03162E-003	4	..........a	-327.66
CURVE5	TABLE
	Pt	T	Vf	Im	Vu	Sig	Ach	IERange	Over	Temp
	#	s	V vs. Ref.	A	V	V	V	#	bits	deg C
	1077	215.6	7.89896E-001	4.70340E-010	0.00000E+000	7.90000E-001	1.03832E-003	4	..........a	-327.66
	1078	215.8	7.79963E-001	3.30982E-010	0.00000E+000	7.80000E-001	1.02182E-003	4	..........a	-327.66
	1079	216	7.69891E-001	2.40867E-010	0.00000E+000	7.70000E-001	1.00142E-003	4	..........a	-327.66
	1080	216.2	7.59866E-001	1.77891E-010	0.00000E+000	7.60000E-001	1.02172E-003	4	..........a	-327.66
	1081	216.4	7.49895E-001	1.31947E-010	0.00000E+000	7.50000E-001	9.85422E-004	4	..........a	-327.66
	1082	216.6	7.39994E-001	9.27314E-011	0.00000E+000	7.40000E-001	1.00632E-003	4	..........a	-327.66
	1083	216.8	7.29931E-001	6.86684E-011	0.00000E+000	7.30000E-001	1.00282E-003	4	..........a	-327.66
	1084	217	7.19886E-001	4.61676E-011	0.00000E+000	7.20000E-001	1.01572E-003	4	..........a	-327.66
	1085	217.2	7.09907E-001	2.75909E-011	0.00000E+000	7.10000E-001	1.00282E-003	4	..........a	-327.66
	1086	217.4	6.99972E-001	1.41253E-011	0.00000E+000	7.00000E-001	1.03962E-003	4	..........a	-327.66
	1087	217.6	6.89846E-001	2.43789E-012	0.00000E+000	6.90000E-001	1.01172E-003	4	..........a	-327.66
	1088	217.8	6.79815E-001	-8.76954E-012	0.00000E+000	6.80000E-001	1.00802E-003	4	..........a	-327.66
	1089	218	6.69896E-001	-1.97000E-011	0.00000E+000	6.70000E-001	1.03182E-003	4	..........a	-327.66
	1090	218.2	6.59987E-001	-2.92113E-011	0.00000E+000	6.60000E-001	1.02342E-003	4	..........a	-327.66
	1091	218.4	6.49916E-001	-3.66576E-011	0.00000E+000	6.50000E-001	9.97522E-004	4	..........a	-327.66
	1092	218.6	6.39908E-001	-4.14448E-011	0.00000E+000	6.40000E-001	1.04332E-003	4	..........a	-327.66
	1093	218.8	6.29875E-001	-4.77190E-011	0.00000E+000	6.30000E-001	1.01342E-003	4	..........a	-327.66
	1094	219	6.19988E-001	-5.26642E-011	0.00000E+000	6.20000E-001	1.00882E-003	4	..........a	-327.66
	1095	219.2	6.09942E-001	-5.80394E-011	0.00000E+000	6.10000E-001	1.02622E-003	4	..........a	-327.66
	1096	219.4	5.99932E-001	-6.20376E-011	0.00000E+000	6.00000E-001	9.96522E-004	4	..........a	-327.66
	1097	219.6	5.89937E-001	-6.80818E-011	0.00000E+000	5.90000E-001	9.97322E-004	4	..........a	-327.66
	1098	219.8	5.80011E-001	-7.06099E-011	0.00000E+000	5.80000E-001	1.01082E-003	4	..........a	-327.66
	1099	220	5.69916E-001	-7.54181E-011	0.00000E+000	5.70000E-001	1.01252E-003	4	..........a	-327.66
	1100	220.2	5.59921E-001	-7.83722E-011	0.00000E+000	5.60000E-001	1.01892E-003	4	..........a	-327.66
	1101	220.4	5.49923E-001	-8.17213E-011	0.00000E+000	5.50000E-001	1.03542E-003	4	..........a	-327.66
	1102	220.6	5.40002E-001	-8.46095E-011	0.00000E+000	5.40000E-001	1.03682E-003	4	..........a	-327.66
	1103	220.8	5.29972E-001	-8.70375E-011	0.00000E+000	5.30000E-001	1.01722E-003	4	..........a	-327.66
	1104	221	5.19939E-001	-9.01847E-011	0.00000E+000	5.20000E-001	1.00732E-003	4	..........a	-327.66
	1105	221.2	5.09926E-001	-9.24407E-011	0.00000E+000	5.10000E-001	1.05162E-003	4	..........a	-327.66
	1106	221.4	5.00037E-001	-9.38138E-011	0.00000E+000	5.00000E-001	1.01062E-003	4	..........a	-327.66
	1107	221.6	4.89944E-001	-9.89230E-011	0.00000E+000	4.90000E-001	1.00502E-003	4	..........a	-327.66
	1108	221.8	4.79952E-001	-1.01280E-010	0.00000E+000	4.80000E-001	1.03212E-003	4	..........a	-327.66
	1109	222	4.69955E-001	-1.02647E-010	0.00000E+000	4.70000E-001	1.01412E-003	4	..........a	-327.66
	1110	222.2	4.60008E-001	-1.05601E-010	0.00000E+000	4.60000E-001	1.04742E-003	4	..........a	-327.66
	1111	222.4	4.49910E-001	-1.07140E-010	0.00000E+000	4.50000E-001	9.76822E-004	4	..........a	-327.66
	1112	222.6	4.39957E-001	-1.09961E-010	0.00000E+000	4.40000E-001	1.03762E-003	4	..........a	-327.66
	1113	222.8	4.29929E-001	-1.12449E-010	0.00000E+000	4.30000E-001	1.04922E-003	4	..........a	-327.66
	1114	223	4.20009E-001	-1.14180E-010	0.00000E+000	4.20000E-001	1.02512E-003	4	..........a	-327.66
	1115	223.2	4.09929E-001	-1.16058E-010	0.00000E+000	4.10000E-001	9.93522E-004	4	..........a	-327.66
	1116	223.4	4.00013E-001	-1.17957E-010	0.00000E+000	4.00000E-001	1.01802E-003	4	..........a	-327.66
	1117	223.6	3.89957E-001	-1.20636E-010	0.00000E+000	3.90000E-001	9.90022E-004	4	..........a	-327.66
	1118	223.8	3.80007E-001	-1.23172E-010	0.00000E+000	3.80000E-001	1.00372E-003	4	..........a	-327.66
	1119	224	3.69971E-001	-1.24245E-010	0.00000E+000	3.70000E-001	1.00122E-003	4	..........a	-327.66
	1120	224.2	3.59918E-001	-1.27186E-010	0.00000E+000	3.60000E-001	1.00112E-003	4	..........a	-327.66