File: data/raw/batch_data/20240424_ZM_GM0016_HL03_E10_CV50.DTA
EXPLAIN
TAG	CV
TITLE	LABEL	Cyclic Voltammetry	Test &Identifier
DATE	LABEL	4/24/2024	Date
TIME	LABEL	18:53:39	Time
NOTES	NOTES	1	&Notes...

PSTAT	PSTAT	REF600P-43058	Potentiostat
VINIT	POTEN	0.00000E+000	T	Initial &E (V)
VLIMIT1	POTEN	-6.00000E-001	F	Scan Limit &1 (V)
VLIMIT2	POTEN	8.00000E-001	F	Scan Limit &2 (V)
VFINAL	POTEN	0.00000E+000	T	Final &E (V)
SCANRATE	QUANT	4.99999E+001	&Scan Rate (mV/s)
STEPSIZE	QUANT	1.00000E+001	St&ep Size (mV)
CYCLES	IQUANT	4	C&ycles (#)
IMODE	SELECTOR	0	I/E Range &Mode
IRANGE	QUANT	1.00000E-005	&Max Current (mA)
AREA	QUANT	1.00000E+000	Electrode &Area (cm^2)
ELECTRODETYPE	SELECTOR	0	Electrode Type
STRIPPING	TOGGLE	F	Used for Stripping
POLARITY	TOGGLE	F	Signal Polarity
CONDIT	TWOPARAM	F	1.50000E+001	0.00000E+000	Conditionin&g	Time(s)	E(V)
DELAY	TWOPARAM	T	1.00000E+001	0.00000E+000	Init. De&lay	Time(s)	Stab.(mV/s)
EQDELAY	QUANT	1.00000E+001	Equil. &Time (s)
IRCOMP	SELECTOR	0	IRCom&p
PFCOR	QUANT	5.00000E+001	PF Corr. (ohm)
SAMPLINGMODE	SELECTOR	1	Sampling &Mode
OCVCURVE	TABLE	39
	Pt	T	Vf	Vm	Ach	Over	Temp
	#	s	V vs. Ref.	V	V	bits	deg C
	0	0.258333	-8.10836E-002	-8.10836E-002	2.28792E-004	..........a	-327.66
	1	0.516667	-8.10861E-002	-8.12113E-002	2.41859E-004	..........a	-327.66
	2	0.775	-8.11011E-002	-8.13335E-002	2.24126E-004	..........a	-327.66
	3	1.03333	-8.11436E-002	-8.14547E-002	2.41992E-004	..........a	-327.66
	4	1.29167	-8.12205E-002	-8.15810E-002	2.29192E-004	..........a	-327.66
	5	1.55	-8.13245E-002	-8.17001E-002	2.50192E-004	..........a	-327.66
	6	1.80833	-8.14432E-002	-8.18284E-002	2.24126E-004	..........a	-327.66
	7	2.06667	-8.15670E-002	-8.19430E-002	2.34792E-004	..........a	-327.66
	8	2.325	-8.16915E-002	-8.20777E-002	2.29126E-004	..........a	-327.66
	9	2.58333	-8.18153E-002	-8.21901E-002	2.49659E-004	..........a	-327.66
	10	2.84167	-8.19388E-002	-8.23171E-002	2.32859E-004	..........a	-327.66
	11	3.1	-8.20615E-002	-8.24264E-002	2.46726E-004	..........a	-327.66
	12	3.35833	-8.21830E-002	-8.25566E-002	2.44126E-004	..........a	-327.66
	13	3.61667	-8.23032E-002	-8.26628E-002	2.38859E-004	..........a	-327.66
	14	3.875	-8.24224E-002	-8.27884E-002	2.35059E-004	..........a	-327.66
	15	4.13333	-8.25407E-002	-8.28983E-002	2.47992E-004	..........a	-327.66
	16	4.39167	-8.26581E-002	-8.30101E-002	2.46726E-004	..........a	-327.66
	17	4.65	-8.27743E-002	-8.31253E-002	2.40726E-004	..........a	-327.66
	18	4.90833	-8.28888E-002	-8.32284E-002	2.51192E-004	..........a	-327.66
	19	5.16667	-8.30017E-002	-8.33486E-002	2.44526E-004	..........a	-327.66
	20	5.425	-8.31134E-002	-8.34498E-002	2.49259E-004	..........a	-327.66
	21	5.68333	-8.32240E-002	-8.35480E-002	2.41259E-004	..........a	-327.66
	22	5.94167	-8.33327E-002	-8.36511E-002	2.43059E-004	..........a	-327.66
	23	6.2	-8.34385E-002	-8.37560E-002	2.37726E-004	..........a	-327.66
	24	6.45833	-8.35419E-002	-8.38535E-002	2.46926E-004	..........a	-327.66
	25	6.71667	-8.36440E-002	-8.39501E-002	2.50859E-004	..........a	-327.66
	26	6.975	-8.37450E-002	-8.40524E-002	2.33926E-004	..........a	-327.66
	27	7.23333	-8.38452E-002	-8.41584E-002	2.43059E-004	..........a	-327.66
	28	7.49167	-8.39452E-002	-8.42499E-002	2.50259E-004	..........a	-327.66
	29	7.75	-8.40454E-002	-8.43460E-002	2.45926E-004	..........a	-327.66
	30	8.00833	-8.41448E-002	-8.44459E-002	2.41059E-004	..........a	-327.66
	31	8.26667	-8.42431E-002	-8.45525E-002	2.28992E-004	..........a	-327.66
	32	8.525	-8.43415E-002	-8.46468E-002	2.37859E-004	..........a	-327.66
	33	8.78333	-8.44406E-002	-8.47407E-002	2.51326E-004	..........a	-327.66
	34	9.04167	-8.45395E-002	-8.48276E-002	2.38326E-004	..........a	-327.66
	35	9.3	-8.46365E-002	-8.49269E-002	2.39926E-004	..........a	-327.66
	36	9.5583	-8.47313E-002	-8.50226E-002	2.31259E-004	..........a	-327.66
	37	9.8167	-8.48253E-002	-8.51202E-002	2.29192E-004	..........a	-327.66
	38	10.075	-8.49198E-002	-8.52067E-002	2.40059E-004	..........a	-327.66
EOC	QUANT	-0.0849198	Open Circuit (V)
PSTATMODEL	IQUANT	7	Pstat Model
PSTATSECTION	LABEL	REF600P-43058	Pstat Section
PSTATSERIALNO	LABEL	43058	Pstat Serial Number
CTRLMODE	IQUANT	1	Control Mode
ELECTROMETER	IQUANT	0	RE=0 or CS=1
IESTAB	IQUANT	2	I/E Stability
CASPEED	IQUANT	4	Control Amp Speed
CONVENTION	IQUANT	1	Current Convention
ICHRANGE	IQUANT	2	Ich Range
ICHRANGEMODE	TOGGLE	F	Ich Auto Range
ICHOFFSETENABLE	TOGGLE	F	Ich Offset Enable
ICHOFFSET	QUANT	0	Ich Offset (V)
ICHFILTER	IQUANT	2	Ich Filter
VCHRANGE	IQUANT	2	Vch Range
VCHRANGEMODE	TOGGLE	F	Vch Auto Range
VCHOFFSETENABLE	TOGGLE	F	Vch Offset Enable
VCHOFFSET	QUANT	0	Vch Offset (V)
VCHFILTER	IQUANT	2	Vch Filter
ACHRANGE	IQUANT	2	Ach Range
ACHOFFSETENABLE	TOGGLE	F	Ach Offset Enable
ACHOFFSET	QUANT	0	Ach Offset (V)
ACHFILTER	IQUANT	1	Ach Filter
IERANGELOWERLIMIT	IQUANT	1	I/E Range Lower Limit
IERANGEMODE	TOGGLE	T	I/E AutoRange
IERANGE	IQUANT	4	I/E Range
POSFEEDENABLE	TOGGLE	F	Positive Feedback IR Comp
POSFEEDRESISTANCE	QUANT	0	Positive Feedback Resistance (ohm)
ACHSELECT	IQUANT	4	Ach Select
SENSECABLEID	IQUANT	7	Sense Cable ID
PWRCABLEID	IQUANT	7	Power Cable ID
DCCALDATE	LABEL	3/22/2024	DC Calibration Date
ACCALDATE	LABEL	3/22/2024	AC Calibration Date
THERMOSELECT	IQUANT	1	Thermo Select
FRAMEWORKVERSION	LABEL	7.8.4	Framework Version
INSTRUMENTVERSION	LABEL	4.42	Instrument Version
CURVE1	TABLE
	Pt	T	Vf	Im	Vu	Sig	Ach	IERange	Over	Temp
	#	s	V vs. Ref.	A	V	V	V	#	bits	deg C
	0	0.2	-8.48769E-002	7.39854E-010	0.00000E+000	-8.49000E-002	9.95292E-004	5	..........a	-327.66
	2	0.6	-1.04899E-001	-3.21351E-009	0.00000E+000	-1.04900E-001	1.00559E-003	5	..........a	-327.66
	4	1	-1.24883E-001	-6.26963E-009	0.00000E+000	-1.24900E-001	9.98392E-004	5	..........a	-327.66
	6	1.4	-1.44855E-001	-9.19715E-009	0.00000E+000	-1.44900E-001	9.82992E-004	5	..........a	-327.66
	8	1.8	-1.64813E-001	-1.20507E-008	0.00000E+000	-1.64900E-001	9.79592E-004	5	..........a	-327.66
	10	2.2	-1.84859E-001	-1.47639E-008	0.00000E+000	-1.84900E-001	9.81592E-004	5	..........a	-327.66
	12	2.6	-2.04871E-001	-1.73596E-008	0.00000E+000	-2.04900E-001	9.87892E-004	5	..........a	-327.66
	14	3	-2.24811E-001	-1.99384E-008	0.00000E+000	-2.24900E-001	1.00209E-003	5	..........a	-327.66
	16	3.4	-2.44815E-001	-2.25689E-008	0.00000E+000	-2.44900E-001	1.00529E-003	5	..........a	-327.66
	18	3.8	-2.64794E-001	-2.52678E-008	0.00000E+000	-2.64900E-001	9.83192E-004	5	..........a	-327.66
	20	4.2	-2.84839E-001	-2.81056E-008	0.00000E+000	-2.84900E-001	1.02069E-003	5	..........a	-327.66
	22	4.6	-3.04785E-001	-3.11400E-008	0.00000E+000	-3.04900E-001	9.91792E-004	5	..........a	-327.66
	24	5	-3.24792E-001	-3.42404E-008	0.00000E+000	-3.24900E-001	9.85992E-004	5	..........a	-327.66
	26	5.4	-3.44792E-001	-3.75438E-008	0.00000E+000	-3.44900E-001	1.00139E-003	5	..........a	-327.66
	28	5.8	-3.64818E-001	-4.08698E-008	0.00000E+000	-3.64900E-001	9.94692E-004	5	..........a	-327.66
	30	6.2	-3.84782E-001	-4.41731E-008	0.00000E+000	-3.84900E-001	9.87792E-004	5	..........a	-327.66
	32	6.6	-4.04808E-001	-4.73704E-008	0.00000E+000	-4.04900E-001	1.00659E-003	5	..........a	-327.66
	34	7	-4.24725E-001	-5.04462E-008	0.00000E+000	-4.24900E-001	1.00169E-003	5	..........a	-327.66
	36	7.4	-4.44837E-001	-5.33603E-008	0.00000E+000	-4.44900E-001	1.00889E-003	5	..........a	-327.66
	38	7.8	-4.64707E-001	-5.61819E-008	0.00000E+000	-4.64900E-001	9.80792E-004	5	..........a	-327.66
	40	8.2	-4.84777E-001	-5.89602E-008	0.00000E+000	-4.84900E-001	1.02069E-003	5	..........a	-327.66
	42	8.6	-5.04712E-001	-6.17423E-008	0.00000E+000	-5.04900E-001	9.92692E-004	5	..........a	-327.66
	44	9	-5.24746E-001	-6.45205E-008	0.00000E+000	-5.24900E-001	1.00619E-003	5	..........a	-327.66
	46	9.4	-5.44732E-001	-6.73288E-008	0.00000E+000	-5.44900E-001	9.97492E-004	5	..........a	-327.66
	48	9.8	-5.64775E-001	-7.01464E-008	0.00000E+000	-5.64900E-001	9.92092E-004	5	..........a	-327.66
	50	10.2	-5.84743E-001	-7.30422E-008	0.00000E+000	-5.84900E-001	9.89592E-004	5	..........a	-327.66
	52	10.6	-5.84722E-001	-6.56979E-008	0.00000E+000	-5.84900E-001	9.95092E-004	5	..........a	-327.66
	54	11	-5.64796E-001	-5.52371E-008	0.00000E+000	-5.64900E-001	1.02029E-003	5	..........a	-327.66
	56	11.4	-5.44714E-001	-4.79142E-008	0.00000E+000	-5.44900E-001	9.97492E-004	5	..........a	-327.66
	58	11.8	-5.24768E-001	-4.21197E-008	0.00000E+000	-5.24900E-001	9.87392E-004	5	..........a	-327.66
	60	12.2	-5.04733E-001	-3.71633E-008	0.00000E+000	-5.04900E-001	9.89192E-004	5	..........a	-327.66
	62	12.6	-4.84830E-001	-3.28153E-008	0.00000E+000	-4.84900E-001	9.88292E-004	5	..........a	-327.66
	64	13	-4.64734E-001	-2.89002E-008	0.00000E+000	-4.64900E-001	9.90592E-004	5	..........a	-327.66
	66	13.4	-4.44809E-001	-2.53358E-008	0.00000E+000	-4.44900E-001	1.00399E-003	5	..........a	-327.66
	68	13.8	-4.24760E-001	-2.20137E-008	0.00000E+000	-4.24900E-001	9.76892E-004	5	..........a	-327.66
	70	14.2	-4.04800E-001	-1.88505E-008	0.00000E+000	-4.04900E-001	1.01679E-003	5	..........a	-327.66
	72	14.6	-3.84791E-001	-1.59306E-008	0.00000E+000	-3.84900E-001	1.00829E-003	5	..........a	-327.66
	74	15	-3.64802E-001	-1.31474E-008	0.00000E+000	-3.64900E-001	1.00209E-003	5	..........a	-327.66
	76	15.4	-3.44797E-001	-1.04751E-008	0.00000E+000	-3.44900E-001	9.95892E-004	5	..........a	-327.66
	78	15.8	-3.24815E-001	-7.92974E-009	0.00000E+000	-3.24900E-001	1.01239E-003	5	..........a	-327.66
	80	16.2	-3.04791E-001	-5.48935E-009	0.00000E+000	-3.04900E-001	9.71792E-004	5	..........a	-327.66
	82	16.6	-2.84802E-001	-3.11914E-009	0.00000E+000	-2.84900E-001	1.01979E-003	5	..........a	-327.66
	84	17	-2.64766E-001	-9.30358E-010	0.00000E+000	-2.64900E-001	9.70392E-004	5	..........a	-327.66
	86	17.4	-2.44828E-001	1.24384E-009	0.00000E+000	-2.44900E-001	1.00779E-003	5	..........a	-327.66
	88	17.8	-2.24853E-001	3.26883E-009	0.00000E+000	-2.24900E-001	1.01739E-003	5	..........a	-327.66
	90	18.2	-2.04877E-001	5.25446E-009	0.00000E+000	-2.04900E-001	1.02229E-003	5	..........a	-327.66
	92	18.6	-1.84877E-001	7.20309E-009	0.00000E+000	-1.84900E-001	1.00119E-003	5	..........a	-327.66
	94	19	-1.64832E-001	9.05254E-009	0.00000E+000	-1.64900E-001	9.82392E-004	5	..........a	-327.66
	96	19.4	-1.44873E-001	1.08647E-008	0.00000E+000	-1.44900E-001	1.00159E-003	5	..........a	-327.66
	98	19.8	-1.24889E-001	1.26890E-008	0.00000E+000	-1.24900E-001	1.01719E-003	5	..........a	-327.66
	100	20.2	-1.04883E-001	1.44750E-008	0.00000E+000	-1.04900E-001	9.90092E-004	5	..........a	-327.66
	102	20.6	-8.48801E-002	1.62509E-008	0.00000E+000	-8.49000E-002	9.88292E-004	5	..........a	-327.66
	104	21	-6.48742E-002	1.80990E-008	0.00000E+000	-6.49000E-002	9.80192E-004	5	..........a	-327.66
	106	21.4	-4.48898E-002	2.00096E-008	0.00000E+000	-4.49000E-002	9.98292E-004	5	..........a	-327.66
	108	21.8	-2.49710E-002	2.20363E-008	0.00000E+000	-2.49000E-002	9.82292E-004	5	..........a	-327.66
	110	22.2	-4.89471E-003	2.40506E-008	0.00000E+000	-4.89999E-003	9.93392E-004	5	..........a	-327.66
	112	22.6	1.47288E-002	2.60586E-008	0.00000E+000	1.51000E-002	1.00749E-003	5	..........a	-327.66
	114	23	3.51128E-002	2.81690E-008	0.00000E+000	3.51000E-002	9.88392E-004	5	..........a	-327.66
	116	23.4	5.51558E-002	3.03255E-008	0.00000E+000	5.51000E-002	1.02029E-003	5	..........a	-327.66
	118	23.8	7.51055E-002	3.24734E-008	0.00000E+000	7.51000E-002	9.96392E-004	5	..........a	-327.66
	120	24.2	9.51296E-002	3.47001E-008	0.00000E+000	9.51000E-002	1.00719E-003	5	..........a	-327.66
	122	24.6	1.15143E-001	3.70170E-008	0.00000E+000	1.15100E-001	9.99092E-004	5	..........a	-327.66
	124	25	1.35144E-001	4.43498E-008	0.00000E+000	1.35100E-001	1.00069E-003	5	..........a	-327.66
	126	25.4	1.55100E-001	4.90156E-008	0.00000E+000	1.55100E-001	9.96092E-004	5	..........a	-327.66
	128	25.8	1.75147E-001	4.77353E-008	0.00000E+000	1.75100E-001	1.00559E-003	5	..........a	-327.66
	130	26.2	1.95119E-001	4.83072E-008	0.00000E+000	1.95100E-001	1.00369E-003	5	..........a	-327.66
	132	26.6	2.15101E-001	5.10471E-008	0.00000E+000	2.15100E-001	9.87292E-004	5	..........a	-327.66
	134	27	2.35071E-001	5.42863E-008	0.00000E+000	2.35100E-001	1.01459E-003	5	..........a	-327.66
	136	27.4	2.55080E-001	5.76690E-008	0.00000E+000	2.55100E-001	1.01179E-003	5	..........a	-327.66
	138	27.8	2.75073E-001	6.12038E-008	0.00000E+000	2.75100E-001	1.01189E-003	5	..........a	-327.66
	140	28.2	2.95116E-001	6.48592E-008	0.00000E+000	2.95100E-001	9.83392E-004	5	..........a	-327.66
	142	28.6	3.15092E-001	6.87206E-008	0.00000E+000	3.15100E-001	9.93692E-004	5	..........a	-327.66
	144	29	3.35109E-001	7.29344E-008	0.00000E+000	3.35100E-001	9.78492E-004	5	..........a	-327.66
	146	29.4	3.55073E-001	7.76020E-008	0.00000E+000	3.55100E-001	1.00719E-003	5	..........a	-327.66
	148	29.8	3.75093E-001	8.27927E-008	0.00000E+000	3.75100E-001	9.95492E-004	5	..........a	-327.66
	150	30.2	3.95071E-001	8.84487E-008	0.00000E+000	3.95100E-001	9.99292E-004	5	..........a	-327.66
	152	30.6	4.15060E-001	9.45024E-008	0.00000E+000	4.15100E-001	1.00629E-003	5	..........a	-327.66
	154	31	4.35005E-001	1.00785E-007	0.00000E+000	4.35100E-001	1.01669E-003	5	..........a	-327.66
	156	31.4	4.55050E-001	1.07171E-007	0.00000E+000	4.55100E-001	9.94292E-004	5	..........a	-327.66
	158	31.8	4.75028E-001	1.13495E-007	0.00000E+000	4.75100E-001	9.85692E-004	5	..........a	-327.66
	160	32.2	4.95027E-001	1.19789E-007	0.00000E+000	4.95100E-001	1.02129E-003	5	..........a	-327.66
	162	32.6	5.15009E-001	1.26071E-007	0.00000E+000	5.15100E-001	9.98292E-004	5	..........a	-327.66
	164	33	5.35029E-001	1.32230E-007	0.00000E+000	5.35100E-001	9.80492E-004	5	..........a	-327.66
	166	33.4	5.55013E-001	1.38210E-007	0.00000E+000	5.55100E-001	9.85692E-004	5	..........a	-327.66
	168	33.8	5.75006E-001	1.44059E-007	0.00000E+000	5.75100E-001	1.01129E-003	5	..........a	-327.66
	170	34.2	5.95003E-001	1.49692E-007	0.00000E+000	5.95100E-001	1.01959E-003	5	..........a	-327.66
	172	34.6	6.14969E-001	1.55333E-007	0.00000E+000	6.15100E-001	9.91492E-004	5	..........a	-327.66
	174	35	6.34974E-001	1.61016E-007	0.00000E+000	6.35100E-001	1.00769E-003	5	..........a	-327.66
	176	35.4	6.54858E-001	1.66721E-007	0.00000E+000	6.55100E-001	9.87792E-004	5	..........a	-327.66
	178	35.8	6.74971E-001	1.72619E-007	0.00000E+000	6.75100E-001	1.00009E-003	5	..........a	-327.66
	180	36.2	6.94964E-001	1.78892E-007	0.00000E+000	6.95100E-001	9.88792E-004	5	..........a	-327.66
	182	36.6	7.14934E-001	1.85696E-007	0.00000E+000	7.15100E-001	1.00609E-003	5	..........a	-327.66
	184	37	7.34955E-001	1.93322E-007	0.00000E+000	7.35100E-001	9.81392E-004	5	..........a	-327.66
	186	37.4	7.54977E-001	2.02042E-007	0.00000E+000	7.55100E-001	9.93492E-004	5	..........a	-327.66
	188	37.8	7.74952E-001	2.12259E-007	0.00000E+000	7.75100E-001	1.00369E-003	5	..........a	-327.66
	190	38.2	7.94940E-001	2.24183E-007	0.00000E+000	7.95100E-001	1.00409E-003	5	..........a	-327.66
CURVE2	TABLE
	Pt	T	Vf	Im	Vu	Sig	Ach	IERange	Over	Temp
	#	s	V vs. Ref.	A	V	V	V	#	bits	deg C
	191	38.4	7.89941E-001	1.92692E-007	0.00000E+000	7.90000E-001	1.00209E-003	5	..........a	-327.66
	194	39	7.59893E-001	1.24192E-007	0.00000E+000	7.60000E-001	9.99092E-004	5	..........a	-327.66
	197	39.6	7.29900E-001	9.31508E-008	0.00000E+000	7.30000E-001	9.90292E-004	5	..........a	-327.66
	200	40.2	6.99912E-001	7.49898E-008	0.00000E+000	7.00000E-001	1.00239E-003	5	..........a	-327.66
	203	40.8	6.69970E-001	6.25529E-008	0.00000E+000	6.70000E-001	1.00539E-003	5	..........a	-327.66
	206	41.4	6.39881E-001	5.30956E-008	0.00000E+000	6.40000E-001	1.01469E-003	5	..........a	-327.66
	209	42	6.09943E-001	4.53072E-008	0.00000E+000	6.10000E-001	1.00149E-003	5	..........a	-327.66
	212	42.6	5.80003E-001	3.86789E-008	0.00000E+000	5.80000E-001	1.00809E-003	5	..........a	-327.66
	215	43.2	5.50031E-001	3.30629E-008	0.00000E+000	5.50000E-001	1.01739E-003	5	..........a	-327.66
	218	43.8	5.19970E-001	2.78075E-008	0.00000E+000	5.20000E-001	1.01549E-003	5	..........a	-327.66
	221	44.4	4.89936E-001	2.30965E-008	0.00000E+000	4.90000E-001	1.00759E-003	5	..........a	-327.66
	224	45	4.60007E-001	1.86770E-008	0.00000E+000	4.60000E-001	1.00089E-003	5	..........a	-327.66
	227	45.6	4.29983E-001	1.40298E-008	0.00000E+000	4.30000E-001	1.01409E-003	5	..........a	-327.66
	230	46.2	3.99983E-001	9.00004E-009	0.00000E+000	4.00000E-001	1.01129E-003	5	..........a	-327.66
	233	46.8	3.70041E-001	3.66264E-009	0.00000E+000	3.70000E-001	1.00839E-003	5	..........a	-327.66
	236	47.4	3.40069E-001	-2.28290E-009	0.00000E+000	3.40000E-001	1.00549E-003	5	..........a	-327.66
	239	48	3.10080E-001	-8.85371E-009	0.00000E+000	3.10000E-001	1.01579E-003	5	..........a	-327.66
	242	48.6	2.79994E-001	-1.65855E-008	0.00000E+000	2.80000E-001	1.01239E-003	5	..........a	-327.66
	245	49.2	2.50042E-001	-2.54188E-008	0.00000E+000	2.50000E-001	1.01119E-003	5	..........a	-327.66
	248	49.8	2.20003E-001	-3.45728E-008	0.00000E+000	2.20000E-001	9.85892E-004	5	..........a	-327.66
	251	50.4	1.90124E-001	-4.18354E-008	0.00000E+000	1.90000E-001	9.93992E-004	5	..........a	-327.66
	254	51	1.60089E-001	-4.39962E-008	0.00000E+000	1.60000E-001	1.01699E-003	5	..........a	-327.66
	257	51.6	1.30090E-001	-4.05572E-008	0.00000E+000	1.30000E-001	1.00999E-003	5	..........a	-327.66
	260	52.2	1.00136E-001	-3.42701E-008	0.00000E+000	1.00000E-001	1.00609E-003	5	..........a	-327.66
	263	52.8	7.00421E-002	-2.88276E-008	0.00000E+000	7.00000E-002	1.00369E-003	5	..........a	-327.66
	266	53.4	4.01391E-002	-2.64760E-008	0.00000E+000	4.00000E-002	9.99692E-004	5	..........a	-327.66
[...]
	1032	206.6	7.79886E-001	1.31609E-007	0.00000E+000	7.80000E-001	9.86992E-004	5	..........a	-327.66
	1033	206.8	7.69907E-001	1.14403E-007	0.00000E+000	7.70000E-001	9.92792E-004	5	..........a	-327.66
	1034	207	7.59887E-001	1.01516E-007	0.00000E+000	7.60000E-001	9.97392E-004	5	..........a	-327.66
	1035	207.2	7.49971E-001	9.14470E-008	0.00000E+000	7.50000E-001	9.89892E-004	5	..........a	-327.66
	1036	207.4	7.39900E-001	8.33258E-008	0.00000E+000	7.40000E-001	9.86092E-004	5	..........a	-327.66
	1037	207.6	7.29930E-001	7.65579E-008	0.00000E+000	7.30000E-001	9.89792E-004	5	..........a	-327.66
	1038	207.8	7.19901E-001	7.09322E-008	0.00000E+000	7.20000E-001	1.00019E-003	5	..........a	-327.66
	1039	208	7.09982E-001	6.60418E-008	0.00000E+000	7.10000E-001	9.97892E-004	5	..........a	-327.66
	1040	208.2	6.99912E-001	6.17235E-008	0.00000E+000	7.00000E-001	9.82592E-004	5	..........a	-327.66
	1041	208.4	6.89923E-001	5.79232E-008	0.00000E+000	6.90000E-001	9.93392E-004	5	..........a	-327.66
	1042	208.6	6.79947E-001	5.44489E-008	0.00000E+000	6.80000E-001	1.00049E-003	5	..........a	-327.66
	1043	208.8	6.69980E-001	5.12352E-008	0.00000E+000	6.70000E-001	9.94092E-004	5	..........a	-327.66
	1044	209	6.59942E-001	4.82788E-008	0.00000E+000	6.60000E-001	9.82492E-004	5	..........a	-327.66
	1045	209.2	6.49944E-001	4.54956E-008	0.00000E+000	6.50000E-001	1.01099E-003	5	..........a	-327.66
	1046	209.4	6.39886E-001	4.28950E-008	0.00000E+000	6.40000E-001	1.01059E-003	5	..........a	-327.66
	1047	209.6	6.30026E-001	4.03668E-008	0.00000E+000	6.30000E-001	9.81292E-004	5	..........a	-327.66
	1048	209.8	6.19932E-001	3.80199E-008	0.00000E+000	6.20000E-001	9.98592E-004	5	..........a	-327.66
	1049	210	6.09978E-001	3.57977E-008	0.00000E+000	6.10000E-001	9.90292E-004	5	..........a	-327.66
	1050	210.2	5.99971E-001	3.36618E-008	0.00000E+000	6.00000E-001	1.00919E-003	5	..........a	-327.66
	1051	210.4	5.90024E-001	3.16868E-008	0.00000E+000	5.90000E-001	9.85692E-004	5	..........a	-327.66
	1052	210.6	5.79987E-001	2.98245E-008	0.00000E+000	5.80000E-001	9.81392E-004	5	..........a	-327.66
	1053	210.8	5.69948E-001	2.81379E-008	0.00000E+000	5.70000E-001	1.00679E-003	5	..........a	-327.66
	1054	211	5.59931E-001	2.64924E-008	0.00000E+000	5.60000E-001	9.99092E-004	5	..........a	-327.66
	1055	211.2	5.50026E-001	2.48032E-008	0.00000E+000	5.50000E-001	9.98192E-004	5	..........a	-327.66
	1056	211.4	5.39983E-001	2.31629E-008	0.00000E+000	5.40000E-001	9.78292E-004	5	..........a	-327.66
	1057	211.6	5.29975E-001	2.15067E-008	0.00000E+000	5.30000E-001	9.92492E-004	5	..........a	-327.66
	1058	211.8	5.19981E-001	1.98493E-008	0.00000E+000	5.20000E-001	1.01439E-003	5	..........a	-327.66
	1059	212	5.09962E-001	1.83652E-008	0.00000E+000	5.10000E-001	1.01249E-003	5	..........a	-327.66
	1060	212.2	5.00054E-001	1.69860E-008	0.00000E+000	5.00000E-001	9.89292E-004	5	..........a	-327.66
	1061	212.4	4.89949E-001	1.57291E-008	0.00000E+000	4.90000E-001	1.02509E-003	5	..........a	-327.66
	1062	212.6	4.79928E-001	1.44813E-008	0.00000E+000	4.80000E-001	9.90992E-004	5	..........a	-327.66
	1063	212.8	4.70011E-001	1.31960E-008	0.00000E+000	4.70000E-001	9.87992E-004	5	..........a	-327.66
	1064	213	4.60003E-001	1.18345E-008	0.00000E+000	4.60000E-001	9.92892E-004	5	..........a	-327.66
	1065	213.2	4.49865E-001	1.04141E-008	0.00000E+000	4.50000E-001	9.76892E-004	5	..........a	-327.66
	1066	213.4	4.39948E-001	8.96718E-009	0.00000E+000	4.40000E-001	1.01119E-003	5	..........a	-327.66
	1067	213.6	4.29980E-001	7.45099E-009	0.00000E+000	4.30000E-001	1.00219E-003	5	..........a	-327.66
	1068	213.8	4.20009E-001	5.90907E-009	0.00000E+000	4.20000E-001	9.91492E-004	5	..........a	-327.66
	1069	214	4.09964E-001	4.34922E-009	0.00000E+000	4.10000E-001	9.96992E-004	5	..........a	-327.66
	1070	214.2	3.99967E-001	2.70980E-009	0.00000E+000	4.00000E-001	9.94992E-004	5	..........a	-327.66
	1071	214.4	3.90044E-001	1.00052E-009	0.00000E+000	3.90000E-001	1.00309E-003	5	..........a	-327.66
	1072	214.6	3.80072E-001	-8.46635E-010	0.00000E+000	3.80000E-001	9.93492E-004	5	..........a	-327.66
	1073	214.8	3.70044E-001	-2.64991E-009	0.00000E+000	3.70000E-001	9.75092E-004	5	..........a	-327.66
	1074	215	3.60044E-001	-4.50392E-009	0.00000E+000	3.60000E-001	9.98092E-004	5	..........a	-327.66
	1075	215.2	3.50041E-001	-6.49487E-009	0.00000E+000	3.50000E-001	1.01629E-003	5	..........a	-327.66
	1076	215.4	3.40089E-001	-8.57917E-009	0.00000E+000	3.40000E-001	9.96192E-004	5	..........a	-327.66
	1077	215.6	3.30038E-001	-1.07590E-008	0.00000E+000	3.30000E-001	9.95592E-004	5	..........a	-327.66
	1078	215.8	3.20054E-001	-1.30654E-008	0.00000E+000	3.20000E-001	9.92992E-004	5	..........a	-327.66
	1079	216	3.10068E-001	-1.54913E-008	0.00000E+000	3.10000E-001	9.94592E-004	5	..........a	-327.66
	1080	216.2	3.00096E-001	-1.81012E-008	0.00000E+000	3.00000E-001	9.68992E-004	5	..........a	-327.66
	1081	216.4	2.90061E-001	-2.09169E-008	0.00000E+000	2.90000E-001	9.84792E-004	5	..........a	-327.66
	1082	216.6	2.80022E-001	-2.38520E-008	0.00000E+000	2.80000E-001	9.95692E-004	5	..........a	-327.66
	1083	216.8	2.70106E-001	-2.69879E-008	0.00000E+000	2.70000E-001	9.74492E-004	5	..........a	-327.66
	1084	217	2.60081E-001	-3.02731E-008	0.00000E+000	2.60000E-001	9.89792E-004	5	..........a	-327.66
	1085	217.2	2.50031E-001	-3.36648E-008	0.00000E+000	2.50000E-001	1.00469E-003	5	..........a	-327.66
	1086	217.4	2.40064E-001	-3.71520E-008	0.00000E+000	2.40000E-001	9.95192E-004	5	..........a	-327.66
	1087	217.6	2.30036E-001	-4.06291E-008	0.00000E+000	2.30000E-001	9.98192E-004	5	..........a	-327.66
	1088	217.8	2.20078E-001	-4.39943E-008	0.00000E+000	2.20000E-001	9.88992E-004	5	..........a	-327.66
	1089	218	2.10055E-001	-4.70776E-008	0.00000E+000	2.10000E-001	9.93192E-004	5	..........a	-327.66
	1090	218.2	2.00111E-001	-4.97060E-008	0.00000E+000	2.00000E-001	1.00349E-003	5	..........a	-327.66
	1091	218.4	1.90132E-001	-5.18174E-008	0.00000E+000	1.90000E-001	9.83692E-004	5	..........a	-327.66
	1092	218.6	1.80130E-001	-5.31916E-008	0.00000E+000	1.80000E-001	9.80892E-004	5	..........a	-327.66
	1093	218.8	1.70095E-001	-5.37905E-008	0.00000E+000	1.70000E-001	1.00989E-003	5	..........a	-327.66
	1094	219	1.60084E-001	-5.35741E-008	0.00000E+000	1.60000E-001	9.92992E-004	5	..........a	-327.66
	1095	219.2	1.50084E-001	-5.25498E-008	0.00000E+000	1.50000E-001	9.82592E-004	5	..........a	-327.66
	1096	219.4	1.40141E-001	-5.08137E-008	0.00000E+000	1.40000E-001	9.76192E-004	5	..........a	-327.66
	1097	219.6	1.30082E-001	-4.84891E-008	0.00000E+000	1.30000E-001	1.00609E-003	5	..........a	-327.66
	1098	219.8	1.20112E-001	-4.57198E-008	0.00000E+000	1.20000E-001	9.75692E-004	5	..........a	-327.66
	1099	220	1.10114E-001	-4.27359E-008	0.00000E+000	1.10000E-001	9.90792E-004	5	..........a	-327.66
	1100	220.2	1.00128E-001	-3.95578E-008	0.00000E+000	1.00000E-001	9.86592E-004	5	..........a	-327.66
	1101	220.4	9.01103E-002	-3.66525E-008	0.00000E+000	9.00000E-002	9.71592E-004	5	..........a	-327.66
	1102	220.6	8.00645E-002	-3.40777E-008	0.00000E+000	8.00000E-002	9.98292E-004	5	..........a	-327.66
	1103	220.8	7.00357E-002	-3.20919E-008	0.00000E+000	7.00000E-002	1.02019E-003	5	..........a	-327.66
	1104	221	6.01250E-002	-3.05345E-008	0.00000E+000	6.00000E-002	9.88892E-004	5	..........a	-327.66
	1105	221.2	5.00839E-002	-2.95164E-008	0.00000E+000	5.00000E-002	1.01129E-003	5	..........a	-327.66
	1106	221.4	4.00446E-002	-2.88186E-008	0.00000E+000	4.00000E-002	1.00709E-003	5	..........a	-327.66
	1107	221.6	3.00652E-002	-2.84240E-008	0.00000E+000	3.00000E-002	1.00549E-003	5	..........a	-327.66
	1108	221.8	2.01476E-002	-2.83661E-008	0.00000E+000	2.00000E-002	1.00439E-003	5	..........a	-327.66
	1109	222	1.01116E-002	-2.84732E-008	0.00000E+000	1.00000E-002	9.91592E-004	5	..........a	-327.66
	1110	222.2	5.81917E-005	-2.89369E-008	0.00000E+000	7.45058E-009	1.00269E-003	5	..........a	-327.66
	1111	222.4	-9.87251E-003	-2.90311E-008	0.00000E+000	-1.00000E-002	9.93592E-004	5	..........a	-327.66
	1112	222.6	-1.98944E-002	-2.92977E-008	0.00000E+000	-2.00000E-002	1.00009E-003	5	..........a	-327.66
	1113	222.8	-2.99080E-002	-2.95426E-008	0.00000E+000	-3.00000E-002	9.87792E-004	5	..........a	-327.66
	1114	223	-3.98965E-002	-3.00542E-008	0.00000E+000	-4.00000E-002	9.80592E-004	5	..........a	-327.66
	1115	223.2	-4.99025E-002	-3.10059E-008	0.00000E+000	-5.00000E-002	1.00359E-003	5	..........a	-327.66
	1116	223.4	-5.98795E-002	-3.13926E-008	0.00000E+000	-6.00000E-002	9.66992E-004	5	..........a	-327.66
	1117	223.6	-6.99064E-002	-3.16555E-008	0.00000E+000	-7.00000E-002	9.80292E-004	5	..........a	-327.66
	1118	223.8	-7.99496E-002	-3.22584E-008	0.00000E+000	-8.00000E-002	9.95492E-004	5	..........a	-327.66