File: data/raw/batch_data/20240424_D_GM0016_HL03_E01_CV50K.DTA
EXPLAIN
TAG	CV
TITLE	LABEL	Cyclic Voltammetry	Test &Identifier
DATE	LABEL	4/24/2024	Date
TIME	LABEL	16:54:05	Time
NOTES	NOTES	1	&Notes...

PSTAT	PSTAT	REF600P-43058	Potentiostat
VINIT	POTEN	0.00000E+000	T	Initial &E (V)
VLIMIT1	POTEN	-6.00000E-001	F	Scan Limit &1 (V)
VLIMIT2	POTEN	8.00000E-001	F	Scan Limit &2 (V)
VFINAL	POTEN	0.00000E+000	T	Final &E (V)
SCANRATE	QUANT	4.99999E+004	&Scan Rate (mV/s)
STEPSIZE	QUANT	1.00000E+001	St&ep Size (mV)
CYCLES	IQUANT	10	C&ycles (#)
IMODE	SELECTOR	0	I/E Range &Mode
IRANGE	QUANT	1.00000E-005	&Max Current (mA)
AREA	QUANT	1.00000E+000	Electrode &Area (cm^2)
ELECTRODETYPE	SELECTOR	0	Electrode Type
STRIPPING	TOGGLE	F	Used for Stripping
POLARITY	TOGGLE	F	Signal Polarity
CONDIT	TWOPARAM	F	1.50000E+001	0.00000E+000	Conditionin&g	Time(s)	E(V)
DELAY	TWOPARAM	T	1.00000E+001	0.00000E+000	Init. De&lay	Time(s)	Stab.(mV/s)
EQDELAY	QUANT	1.00000E+001	Equil. &Time (s)
IRCOMP	SELECTOR	0	IRCom&p
PFCOR	QUANT	5.00000E+001	PF Corr. (ohm)
SAMPLINGMODE	SELECTOR	1	Sampling &Mode
OCVCURVE	TABLE	39
	Pt	T	Vf	Vm	Ach	Over	Temp
	#	s	V vs. Ref.	V	V	bits	deg C
	0	0.258333	-1.56350E-001	-1.56350E-001	2.10992E-004	..........a	-327.66
	1	0.516667	-1.56368E-001	-1.57331E-001	2.08259E-004	..........a	-327.66
	2	0.775	-1.56484E-001	-1.58278E-001	2.15926E-004	..........a	-327.66
	3	1.03333	-1.56812E-001	-1.59212E-001	2.09259E-004	..........a	-327.66
	4	1.29167	-1.57403E-001	-1.60112E-001	2.05192E-004	..........a	-327.66
	5	1.55	-1.58197E-001	-1.60986E-001	2.05459E-004	..........a	-327.66
	6	1.80833	-1.59090E-001	-1.61843E-001	2.12259E-004	..........a	-327.66
	7	2.06667	-1.60001E-001	-1.62681E-001	2.02192E-004	..........a	-327.66
	8	2.325	-1.60894E-001	-1.63493E-001	2.02859E-004	..........a	-327.66
	9	2.58333	-1.61760E-001	-1.64297E-001	2.10126E-004	..........a	-327.66
	10	2.84167	-1.62600E-001	-1.65088E-001	2.09926E-004	..........a	-327.66
	11	3.1	-1.63421E-001	-1.65863E-001	2.03192E-004	..........a	-327.66
	12	3.35833	-1.64226E-001	-1.66625E-001	2.00859E-004	..........a	-327.66
	13	3.61667	-1.65016E-001	-1.67365E-001	2.06992E-004	..........a	-327.66
	14	3.875	-1.65791E-001	-1.68095E-001	1.98592E-004	..........a	-327.66
	15	4.13333	-1.66552E-001	-1.68815E-001	2.02192E-004	..........a	-327.66
	16	4.39167	-1.67298E-001	-1.69526E-001	2.10059E-004	..........a	-327.66
	17	4.65	-1.68030E-001	-1.70186E-001	2.00259E-004	..........a	-327.66
	18	4.90833	-1.68747E-001	-1.70833E-001	1.98859E-004	..........a	-327.66
	19	5.16667	-1.69444E-001	-1.71476E-001	2.12726E-004	..........a	-327.66
	20	5.425	-1.70120E-001	-1.72116E-001	2.03192E-004	..........a	-327.66
	21	5.68333	-1.70779E-001	-1.72760E-001	1.95992E-004	..........a	-327.66
	22	5.94167	-1.71426E-001	-1.73378E-001	2.04859E-004	..........a	-327.66
	23	6.2	-1.72066E-001	-1.73982E-001	1.98526E-004	..........a	-327.66
	24	6.45833	-1.72697E-001	-1.74574E-001	2.02526E-004	..........a	-327.66
	25	6.71667	-1.73318E-001	-1.75158E-001	2.08526E-004	..........a	-327.66
	26	6.975	-1.73925E-001	-1.75724E-001	1.96792E-004	..........a	-327.66
	27	7.23333	-1.74520E-001	-1.76278E-001	2.08192E-004	..........a	-327.66
	28	7.49167	-1.75102E-001	-1.76818E-001	2.09792E-004	..........a	-327.66
	29	7.75	-1.75670E-001	-1.77356E-001	2.08392E-004	..........a	-327.66
	30	8.00833	-1.76227E-001	-1.77895E-001	2.02392E-004	..........a	-327.66
	31	8.26667	-1.76773E-001	-1.78412E-001	2.00192E-004	..........a	-327.66
	32	8.525	-1.77312E-001	-1.78938E-001	2.08259E-004	..........a	-327.66
	33	8.78333	-1.77845E-001	-1.79446E-001	2.06392E-004	..........a	-327.66
	34	9.04167	-1.78370E-001	-1.79946E-001	2.08992E-004	..........a	-327.66
	35	9.3	-1.78889E-001	-1.80441E-001	1.99659E-004	..........a	-327.66
	36	9.5583	-1.79399E-001	-1.80909E-001	2.01859E-004	..........a	-327.66
	37	9.8167	-1.79900E-001	-1.81369E-001	1.97392E-004	..........a	-327.66
	38	10.075	-1.80388E-001	-1.81808E-001	2.01059E-004	..........a	-327.66
EOC	QUANT	-0.1803878	Open Circuit (V)
PSTATMODEL	IQUANT	7	Pstat Model
PSTATSECTION	LABEL	REF600P-43058	Pstat Section
PSTATSERIALNO	LABEL	43058	Pstat Serial Number
CTRLMODE	IQUANT	1	Control Mode
ELECTROMETER	IQUANT	0	RE=0 or CS=1
IESTAB	IQUANT	2	I/E Stability
CASPEED	IQUANT	4	Control Amp Speed
CONVENTION	IQUANT	1	Current Convention
ICHRANGE	IQUANT	2	Ich Range
ICHRANGEMODE	TOGGLE	F	Ich Auto Range
ICHOFFSETENABLE	TOGGLE	F	Ich Offset Enable
ICHOFFSET	QUANT	0	Ich Offset (V)
ICHFILTER	IQUANT	1	Ich Filter
VCHRANGE	IQUANT	2	Vch Range
VCHRANGEMODE	TOGGLE	F	Vch Auto Range
VCHOFFSETENABLE	TOGGLE	F	Vch Offset Enable
VCHOFFSET	QUANT	0	Vch Offset (V)
VCHFILTER	IQUANT	1	Vch Filter
ACHRANGE	IQUANT	2	Ach Range
ACHOFFSETENABLE	TOGGLE	F	Ach Offset Enable
ACHOFFSET	QUANT	0	Ach Offset (V)
ACHFILTER	IQUANT	1	Ach Filter
IERANGELOWERLIMIT	IQUANT	1	I/E Range Lower Limit
IERANGEMODE	TOGGLE	T	I/E AutoRange
IERANGE	IQUANT	4	I/E Range
POSFEEDENABLE	TOGGLE	F	Positive Feedback IR Comp
POSFEEDRESISTANCE	QUANT	0	Positive Feedback Resistance (ohm)
ACHSELECT	IQUANT	4	Ach Select
SENSECABLEID	IQUANT	7	Sense Cable ID
PWRCABLEID	IQUANT	7	Power Cable ID
DCCALDATE	LABEL	3/22/2024	DC Calibration Date
ACCALDATE	LABEL	3/22/2024	AC Calibration Date
THERMOSELECT	IQUANT	1	Thermo Select
FRAMEWORKVERSION	LABEL	7.8.4	Framework Version
INSTRUMENTVERSION	LABEL	4.42	Instrument Version
CURVE1	TABLE
	Pt	T	Vf	Im	Vu	Sig	Ach	IERange	Over	Temp
	#	s	V vs. Ref.	A	V	V	V	#	bits	deg C
	0	0.0002	-1.80303E-001	2.35001E-007	0.00000E+000	-1.80400E-001	8.15923E-005	8	..........a	-327.66
	2	0.0006	-2.00353E-001	-1.36506E-006	0.00000E+000	-2.00400E-001	8.15923E-005	8	..........a	-327.66
	4	0.001	-2.20453E-001	-2.29510E-006	0.00000E+000	-2.20400E-001	8.15923E-005	8	..........a	-327.66
	6	0.0014	-2.40353E-001	-2.95512E-006	0.00000E+000	-2.40400E-001	8.15923E-005	8	..........a	-327.66
	8	0.0018	-2.60353E-001	-3.52514E-006	0.00000E+000	-2.60400E-001	8.15923E-005	8	..........a	-327.66
	10	0.0022	-2.80353E-001	-3.88516E-006	0.00000E+000	-2.80400E-001	8.15923E-005	8	..........a	-327.66
	12	0.0026	-3.00353E-001	-4.25517E-006	0.00000E+000	-3.00400E-001	8.15923E-005	8	..........a	-327.66
	14	0.003	-3.20403E-001	-4.51518E-006	0.00000E+000	-3.20400E-001	8.15923E-005	8	..........a	-327.66
	16	0.0034	-3.40353E-001	-4.75519E-006	0.00000E+000	-3.40400E-001	8.15923E-005	8	..........a	-327.66
	18	0.0038	-3.60353E-001	-5.01520E-006	0.00000E+000	-3.60400E-001	8.15923E-005	8	..........a	-327.66
	20	0.0042	-3.80353E-001	-5.24521E-006	0.00000E+000	-3.80400E-001	8.15923E-005	8	..........a	-327.66
	22	0.0046	-4.00353E-001	-5.47522E-006	0.00000E+000	-4.00400E-001	-3.18408E-004	8	..........a	-327.66
	24	0.005	-4.20353E-001	-5.71523E-006	0.00000E+000	-4.20400E-001	8.15923E-005	8	..........a	-327.66
	26	0.0054	-4.40353E-001	-5.97524E-006	0.00000E+000	-4.40400E-001	8.15923E-005	8	..........a	-327.66
	28	0.0058	-4.60253E-001	-6.19525E-006	0.00000E+000	-4.60400E-001	8.15923E-005	8	..........a	-327.66
	30	0.0062	-4.80353E-001	-6.45526E-006	0.00000E+000	-4.80400E-001	8.15923E-005	8	..........a	-327.66
	32	0.0066	-5.00253E-001	-6.65526E-006	0.00000E+000	-5.00400E-001	8.15923E-005	8	..........a	-327.66
	34	0.007	-5.20353E-001	-6.88527E-006	0.00000E+000	-5.20400E-001	8.15923E-005	8	..........a	-327.66
	36	0.0074	-5.40353E-001	-7.12528E-006	0.00000E+000	-5.40400E-001	8.15923E-005	8	..........a	-327.66
	38	0.0078	-5.60253E-001	-7.33529E-006	0.00000E+000	-5.60400E-001	8.15923E-005	8	..........a	-327.66
	40	0.0082	-5.80353E-001	-7.56530E-006	0.00000E+000	-5.80400E-001	-3.18408E-004	8	..........a	-327.66
	42	0.0086	-6.00453E-001	-7.79531E-006	0.00000E+000	-6.00400E-001	8.15923E-005	8	..........a	-327.66
	44	0.009	-5.80353E-001	-4.71519E-006	0.00000E+000	-5.80400E-001	8.15923E-005	8	..........a	-327.66
	46	0.0094	-5.60253E-001	-2.61511E-006	0.00000E+000	-5.60400E-001	8.15923E-005	8	..........a	-327.66
	48	0.0098	-5.40353E-001	-1.04505E-006	0.00000E+000	-5.40400E-001	8.15923E-005	8	..........a	-327.66
	50	0.0102	-5.20353E-001	1.94999E-007	0.00000E+000	-5.20400E-001	8.15923E-005	8	..........a	-327.66
	52	0.0106	-5.00353E-001	1.20504E-006	0.00000E+000	-5.00400E-001	8.15923E-005	8	..........a	-327.66
	54	0.011	-4.80153E-001	1.99507E-006	0.00000E+000	-4.80400E-001	8.15923E-005	8	..........a	-327.66
	56	0.0114	-4.60353E-001	2.63509E-006	0.00000E+000	-4.60400E-001	8.15923E-005	8	..........a	-327.66
	58	0.0118	-4.40353E-001	3.18511E-006	0.00000E+000	-4.40400E-001	8.15923E-005	8	..........a	-327.66
	60	0.0122	-4.20153E-001	3.67513E-006	0.00000E+000	-4.20400E-001	8.15923E-005	8	..........a	-327.66
	62	0.0126	-4.00353E-001	4.05515E-006	0.00000E+000	-4.00400E-001	8.15923E-005	8	..........a	-327.66
	64	0.013	-3.80353E-001	4.35516E-006	0.00000E+000	-3.80400E-001	8.15923E-005	8	..........a	-327.66
	66	0.0134	-3.60353E-001	4.64517E-006	0.00000E+000	-3.60400E-001	8.15923E-005	8	..........a	-327.66
	68	0.0138	-3.40253E-001	4.91518E-006	0.00000E+000	-3.40400E-001	8.15923E-005	8	..........a	-327.66
	70	0.0142	-3.20353E-001	5.08519E-006	0.00000E+000	-3.20400E-001	8.15923E-005	8	..........a	-327.66
	72	0.0146	-3.00253E-001	5.30520E-006	0.00000E+000	-3.00400E-001	8.15923E-005	8	..........a	-327.66
	74	0.015	-2.80353E-001	5.48520E-006	0.00000E+000	-2.80400E-001	8.15923E-005	8	..........a	-327.66
	76	0.0154	-2.60253E-001	5.61521E-006	0.00000E+000	-2.60400E-001	8.15923E-005	8	..........a	-327.66
	78	0.0158	-2.40453E-001	5.76521E-006	0.00000E+000	-2.40400E-001	8.15923E-005	8	..........a	-327.66
	80	0.0162	-2.20353E-001	5.87522E-006	0.00000E+000	-2.20400E-001	8.15923E-005	8	..........a	-327.66
	82	0.0166	-2.00353E-001	5.98522E-006	0.00000E+000	-2.00400E-001	8.15923E-005	8	..........a	-327.66
	84	0.017	-1.80253E-001	6.10523E-006	0.00000E+000	-1.80400E-001	8.15923E-005	8	..........a	-327.66
	86	0.0174	-1.60253E-001	6.20523E-006	0.00000E+000	-1.60400E-001	8.15923E-005	8	..........a	-327.66
	88	0.0178	-1.40453E-001	6.28523E-006	0.00000E+000	-1.40400E-001	-3.18408E-004	8	..........a	-327.66
	90	0.0182	-1.20353E-001	6.39524E-006	0.00000E+000	-1.20400E-001	8.15923E-005	8	..........a	-327.66
	92	0.0186	-1.00353E-001	6.50524E-006	0.00000E+000	-1.00400E-001	8.15923E-005	8	..........a	-327.66
	94	0.019	-8.03529E-002	6.59524E-006	0.00000E+000	-8.04000E-002	8.15923E-005	8	..........a	-327.66
	96	0.0194	-6.01529E-002	6.67525E-006	0.00000E+000	-6.04000E-002	8.15923E-005	8	..........a	-327.66
	98	0.0198	-4.04529E-002	6.80525E-006	0.00000E+000	-4.04000E-002	8.15923E-005	8	..........a	-327.66
	100	0.0202	-2.03529E-002	6.92526E-006	0.00000E+000	-2.04000E-002	-2.18408E-004	8	..........a	-327.66
	102	0.0206	-4.52886E-004	7.07526E-006	0.00000E+000	-3.99999E-004	8.15923E-005	8	..........a	-327.66
	104	0.021	1.97471E-002	7.22527E-006	0.00000E+000	1.96000E-002	-2.18408E-004	8	..........a	-327.66
	106	0.0214	3.96971E-002	7.41528E-006	0.00000E+000	3.96000E-002	8.15923E-005	8	..........a	-327.66
	108	0.0218	5.96471E-002	7.63528E-006	0.00000E+000	5.96000E-002	8.15923E-005	8	..........a	-327.66
	110	0.0222	7.95971E-002	7.84529E-006	0.00000E+000	7.96000E-002	8.15923E-005	8	..........a	-327.66
	112	0.0226	9.94471E-002	8.12530E-006	0.00000E+000	9.96000E-002	8.15923E-005	8	..........a	-327.66
	114	0.023	1.19497E-001	8.41531E-006	0.00000E+000	1.19600E-001	8.15923E-005	8	..........a	-327.66
	116	0.0234	1.39647E-001	8.74533E-006	0.00000E+000	1.39600E-001	-5.18408E-004	8	..........a	-327.66
	118	0.0238	1.59647E-001	9.06534E-006	0.00000E+000	1.59600E-001	8.15923E-005	8	..........a	-327.66
	120	0.0242	1.79547E-001	9.45535E-006	0.00000E+000	1.79600E-001	8.15923E-005	8	..........a	-327.66
	122	0.0246	1.99647E-001	9.83537E-006	0.00000E+000	1.99600E-001	8.15923E-005	8	..........a	-327.66
	124	0.025	2.19447E-001	1.02354E-005	0.00000E+000	2.19600E-001	8.15923E-005	8	..........a	-327.66
	126	0.0254	2.39647E-001	1.06054E-005	0.00000E+000	2.39600E-001	8.15923E-005	8	..........a	-327.66
	128	0.0258	2.59647E-001	1.10054E-005	0.00000E+000	2.59600E-001	8.15923E-005	8	..........a	-327.66
	130	0.0262	2.79547E-001	1.14354E-005	0.00000E+000	2.79600E-001	8.15923E-005	8	..........a	-327.66
	132	0.0266	2.99697E-001	1.18654E-005	0.00000E+000	2.99600E-001	8.15923E-005	8	..........a	-327.66
	134	0.027	3.19647E-001	1.22855E-005	0.00000E+000	3.19600E-001	-2.18408E-004	8	..........a	-327.66
	136	0.0274	3.39497E-001	1.27455E-005	0.00000E+000	3.39600E-001	-2.18408E-004	8	..........a	-327.66
	138	0.0278	3.59547E-001	1.31155E-005	0.00000E+000	3.59600E-001	-3.18408E-004	8	..........a	-327.66
	140	0.0282	3.79647E-001	1.35255E-005	0.00000E+000	3.79600E-001	8.15923E-005	8	..........a	-327.66
	142	0.0286	3.99497E-001	1.39255E-005	0.00000E+000	3.99600E-001	8.15923E-005	8	..........a	-327.66
	144	0.029	4.19647E-001	1.42955E-005	0.00000E+000	4.19600E-001	-5.18408E-004	8	..........a	-327.66
	146	0.0294	4.39397E-001	1.47056E-005	0.00000E+000	4.39600E-001	8.15923E-005	8	..........a	-327.66
	148	0.0298	4.59647E-001	1.50456E-005	0.00000E+000	4.59600E-001	-5.18408E-004	8	..........a	-327.66
	150	0.0302	4.79547E-001	1.54256E-005	0.00000E+000	4.79600E-001	-3.18408E-004	8	..........a	-327.66
	152	0.0306	4.99647E-001	1.57156E-005	0.00000E+000	4.99600E-001	8.15923E-005	8	..........a	-327.66
	154	0.031	5.19447E-001	1.60856E-005	0.00000E+000	5.19600E-001	8.15923E-005	8	..........a	-327.66
	156	0.0314	5.39547E-001	1.63656E-005	0.00000E+000	5.39600E-001	8.15923E-005	8	..........a	-327.66
	158	0.0318	5.59547E-001	1.66356E-005	0.00000E+000	5.59600E-001	8.15923E-005	8	..........a	-327.66
	160	0.0322	5.79447E-001	1.68456E-005	0.00000E+000	5.79600E-001	8.15923E-005	8	..........a	-327.66
	162	0.0326	5.99647E-001	1.70856E-005	0.00000E+000	5.99600E-001	8.15923E-005	8	..........a	-327.66
	164	0.033	6.19647E-001	1.72257E-005	0.00000E+000	6.19600E-001	8.15923E-005	8	..........a	-327.66
	166	0.0334	6.39447E-001	1.73257E-005	0.00000E+000	6.39600E-001	8.15923E-005	8	..........a	-327.66
	168	0.0338	6.59447E-001	1.74457E-005	0.00000E+000	6.59600E-001	8.15923E-005	8	..........a	-327.66
	170	0.0342	6.79447E-001	1.74457E-005	0.00000E+000	6.79600E-001	8.15923E-005	8	..........a	-327.66
	172	0.0346	6.99447E-001	1.74457E-005	0.00000E+000	6.99600E-001	8.15923E-005	8	..........a	-327.66
	174	0.035	7.19397E-001	1.74357E-005	0.00000E+000	7.19600E-001	-3.18408E-004	8	..........a	-327.66
	176	0.0354	7.39397E-001	1.74157E-005	0.00000E+000	7.39600E-001	8.15923E-005	8	..........a	-327.66
	178	0.0358	7.59547E-001	1.73057E-005	0.00000E+000	7.59600E-001	-2.18408E-004	8	..........a	-327.66
	180	0.0362	7.79547E-001	1.72757E-005	0.00000E+000	7.79600E-001	8.15923E-005	8	..........a	-327.66
	182	0.0366	7.99447E-001	1.72057E-005	0.00000E+000	7.99600E-001	8.15923E-005	8	..........a	-327.66
CURVE2	TABLE
	Pt	T	Vf	Im	Vu	Sig	Ach	IERange	Over	Temp
	#	s	V vs. Ref.	A	V	V	V	#	bits	deg C
	183	0.0368	7.89947E-001	1.50756E-005	0.00000E+000	7.90000E-001	8.15923E-005	8	..........a	-327.66
	186	0.0374	7.59847E-001	1.03654E-005	0.00000E+000	7.60000E-001	-4.18408E-004	8	..........a	-327.66
	189	0.038	7.29947E-001	7.04526E-006	0.00000E+000	7.30000E-001	8.15923E-005	8	..........a	-327.66
	192	0.0386	6.99947E-001	4.40516E-006	0.00000E+000	7.00000E-001	8.15923E-005	8	..........a	-327.66
	195	0.0392	6.69897E-001	2.41508E-006	0.00000E+000	6.70000E-001	8.15923E-005	8	..........a	-327.66
	198	0.0398	6.39747E-001	6.75018E-007	0.00000E+000	6.40000E-001	8.15923E-005	8	..........a	-327.66
	201	0.0404	6.09797E-001	-6.75034E-007	0.00000E+000	6.10000E-001	-3.18408E-004	8	..........a	-327.66
	204	0.041	5.79897E-001	-1.88508E-006	0.00000E+000	5.80000E-001	8.15923E-005	8	..........a	-327.66
	207	0.0416	5.49797E-001	-2.96512E-006	0.00000E+000	5.50000E-001	8.15923E-005	8	..........a	-327.66
	210	0.0422	5.20047E-001	-3.88516E-006	0.00000E+000	5.20000E-001	8.15923E-005	8	..........a	-327.66
	213	0.0428	4.89947E-001	-4.80519E-006	0.00000E+000	4.90000E-001	8.15923E-005	8	..........a	-327.66
	216	0.0434	4.59847E-001	-5.59522E-006	0.00000E+000	4.60000E-001	-3.18408E-004	8	..........a	-327.66
	219	0.044	4.29847E-001	-6.41525E-006	0.00000E+000	4.30000E-001	8.15923E-005	8	..........a	-327.66
	222	0.0446	3.99747E-001	-7.22528E-006	0.00000E+000	4.00000E-001	8.15923E-005	8	..........a	-327.66
	225	0.0452	3.70047E-001	-8.05532E-006	0.00000E+000	3.70000E-001	8.15923E-005	8	..........a	-327.66
	228	0.0458	3.40047E-001	-8.72534E-006	0.00000E+000	3.40000E-001	8.15923E-005	8	..........a	-327.66
	231	0.0464	3.10047E-001	-9.55537E-006	0.00000E+000	3.10000E-001	8.15923E-005	8	..........a	-327.66
	234	0.047	2.79947E-001	-1.02854E-005	0.00000E+000	2.80000E-001	8.15923E-005	8	..........a	-327.66
	237	0.0476	2.50047E-001	-1.09254E-005	0.00000E+000	2.50000E-001	-2.18408E-004	8	..........a	-327.66
	240	0.0482	2.19847E-001	-1.15555E-005	0.00000E+000	2.20000E-001	8.15923E-005	8	..........a	-327.66
	243	0.0488	1.90147E-001	-1.20855E-005	0.00000E+000	1.90000E-001	8.15923E-005	8	..........a	-327.66
	246	0.0494	1.60147E-001	-1.24855E-005	0.00000E+000	1.60000E-001	8.15923E-005	8	..........a	-327.66
	249	0.05	1.30097E-001	-1.28355E-005	0.00000E+000	1.30000E-001	-1.18408E-004	8	..........a	-327.66
	252	0.0506	1.00147E-001	-1.31755E-005	0.00000E+000	1.00000E-001	8.15923E-005	8	..........a	-327.66
	255	0.0512	6.99471E-002	-1.32855E-005	0.00000E+000	7.00000E-002	-3.18408E-004	8	..........a	-327.66
	258	0.0518	4.00471E-002	-1.34455E-005	0.00000E+000	4.00000E-002	8.15923E-005	8	..........a	-327.66
	261	0.0524	1.00471E-002	-1.34755E-005	0.00000E+000	1.00000E-002	8.15923E-005	8	..........a	-327.66
[...]
	2716	0.5434	6.60047E-001	8.85026E-007	0.00000E+000	6.60000E-001	8.15923E-005	8	..........a	-327.66
	2717	0.5436	6.49947E-001	3.45005E-007	0.00000E+000	6.50000E-001	-2.18408E-004	8	..........a	-327.66
	2718	0.5438	6.39947E-001	-1.45014E-007	0.00000E+000	6.40000E-001	8.15923E-005	8	..........a	-327.66
	2719	0.544	6.29947E-001	-5.95031E-007	0.00000E+000	6.30000E-001	-2.18408E-004	8	..........a	-327.66
	2720	0.5442	6.19947E-001	-1.07505E-006	0.00000E+000	6.20000E-001	8.15923E-005	8	..........a	-327.66
	2721	0.5444	6.09947E-001	-1.47506E-006	0.00000E+000	6.10000E-001	8.15923E-005	8	..........a	-327.66
	2722	0.5446	5.99847E-001	-1.86508E-006	0.00000E+000	6.00000E-001	8.15923E-005	8	..........a	-327.66
	2723	0.5448	5.89847E-001	-2.25509E-006	0.00000E+000	5.90000E-001	8.15923E-005	8	..........a	-327.66
	2724	0.545	5.80047E-001	-2.63511E-006	0.00000E+000	5.80000E-001	8.15923E-005	8	..........a	-327.66
	2725	0.5452	5.69847E-001	-2.95512E-006	0.00000E+000	5.70000E-001	8.15923E-005	8	..........a	-327.66
	2726	0.5454	5.60047E-001	-3.24513E-006	0.00000E+000	5.60000E-001	8.15923E-005	8	..........a	-327.66
	2727	0.5456	5.49997E-001	-3.57515E-006	0.00000E+000	5.50000E-001	8.15923E-005	8	..........a	-327.66
	2728	0.5458	5.39947E-001	-3.93516E-006	0.00000E+000	5.40000E-001	8.15923E-005	8	..........a	-327.66
	2729	0.546	5.29947E-001	-4.21517E-006	0.00000E+000	5.30000E-001	8.15923E-005	8	..........a	-327.66
	2730	0.5462	5.20047E-001	-4.53518E-006	0.00000E+000	5.20000E-001	8.15923E-005	8	..........a	-327.66
	2731	0.5464	5.09947E-001	-4.75519E-006	0.00000E+000	5.10000E-001	8.15923E-005	8	..........a	-327.66
	2732	0.5466	4.99947E-001	-5.05520E-006	0.00000E+000	5.00000E-001	8.15923E-005	8	..........a	-327.66
	2733	0.5468	4.89947E-001	-5.34521E-006	0.00000E+000	4.90000E-001	8.15923E-005	8	..........a	-327.66
	2734	0.547	4.80247E-001	-5.61522E-006	0.00000E+000	4.80000E-001	8.15923E-005	8	..........a	-327.66
	2735	0.5472	4.69997E-001	-5.86523E-006	0.00000E+000	4.70000E-001	8.15923E-005	8	..........a	-327.66
	2736	0.5474	4.60047E-001	-6.11524E-006	0.00000E+000	4.60000E-001	8.15923E-005	8	..........a	-327.66
	2737	0.5476	4.50047E-001	-6.35525E-006	0.00000E+000	4.50000E-001	8.15923E-005	8	..........a	-327.66
	2738	0.5478	4.39847E-001	-6.63526E-006	0.00000E+000	4.40000E-001	8.15923E-005	8	..........a	-327.66
	2739	0.548	4.29947E-001	-6.87527E-006	0.00000E+000	4.30000E-001	8.15923E-005	8	..........a	-327.66
	2740	0.5482	4.19947E-001	-7.11528E-006	0.00000E+000	4.20000E-001	8.15923E-005	8	..........a	-327.66
	2741	0.5484	4.09797E-001	-7.34529E-006	0.00000E+000	4.10000E-001	-3.18408E-004	8	..........a	-327.66
	2742	0.5486	3.99847E-001	-7.64530E-006	0.00000E+000	4.00000E-001	-2.18408E-004	8	..........a	-327.66
	2743	0.5488	3.89947E-001	-7.92531E-006	0.00000E+000	3.90000E-001	8.15923E-005	8	..........a	-327.66
	2744	0.549	3.80147E-001	-8.10532E-006	0.00000E+000	3.80000E-001	8.15923E-005	8	..........a	-327.66
	2745	0.5492	3.70047E-001	-8.37533E-006	0.00000E+000	3.70000E-001	8.15923E-005	8	..........a	-327.66
	2746	0.5494	3.60047E-001	-8.60534E-006	0.00000E+000	3.60000E-001	8.15923E-005	8	..........a	-327.66
	2747	0.5496	3.49947E-001	-8.91535E-006	0.00000E+000	3.50000E-001	8.15923E-005	8	..........a	-327.66
	2748	0.5498	3.39947E-001	-9.13536E-006	0.00000E+000	3.40000E-001	8.15923E-005	8	..........a	-327.66
	2749	0.55	3.30047E-001	-9.37537E-006	0.00000E+000	3.30000E-001	-3.18408E-004	8	..........a	-327.66
	2750	0.5502	3.19947E-001	-9.59537E-006	0.00000E+000	3.20000E-001	8.15923E-005	8	..........a	-327.66
	2751	0.5504	3.10047E-001	-9.84538E-006	0.00000E+000	3.10000E-001	8.15923E-005	8	..........a	-327.66
	2752	0.5506	3.00247E-001	-1.01154E-005	0.00000E+000	3.00000E-001	8.15923E-005	8	..........a	-327.66
	2753	0.5508	2.89947E-001	-1.03254E-005	0.00000E+000	2.90000E-001	8.15923E-005	8	..........a	-327.66
	2754	0.551	2.80047E-001	-1.06154E-005	0.00000E+000	2.80000E-001	8.15923E-005	8	..........a	-327.66
	2755	0.5512	2.69947E-001	-1.08154E-005	0.00000E+000	2.70000E-001	8.15923E-005	8	..........a	-327.66
	2756	0.5514	2.60047E-001	-1.10754E-005	0.00000E+000	2.60000E-001	8.15923E-005	8	..........a	-327.66
	2757	0.5516	2.49947E-001	-1.12554E-005	0.00000E+000	2.50000E-001	8.15923E-005	8	..........a	-327.66
	2758	0.5518	2.39947E-001	-1.14554E-005	0.00000E+000	2.40000E-001	8.15923E-005	8	..........a	-327.66
	2759	0.552	2.29847E-001	-1.16755E-005	0.00000E+000	2.30000E-001	8.15923E-005	8	..........a	-327.66
	2760	0.5522	2.20147E-001	-1.18255E-005	0.00000E+000	2.20000E-001	8.15923E-005	8	..........a	-327.66
	2761	0.5524	2.10047E-001	-1.20555E-005	0.00000E+000	2.10000E-001	8.15923E-005	8	..........a	-327.66
	2762	0.5526	2.00147E-001	-1.21955E-005	0.00000E+000	2.00000E-001	8.15923E-005	8	..........a	-327.66
	2763	0.5528	1.90047E-001	-1.23555E-005	0.00000E+000	1.90000E-001	8.15923E-005	8	..........a	-327.66
	2764	0.553	1.79997E-001	-1.25155E-005	0.00000E+000	1.80000E-001	8.15923E-005	8	..........a	-327.66
	2765	0.5532	1.70047E-001	-1.26555E-005	0.00000E+000	1.70000E-001	8.15923E-005	8	..........a	-327.66
	2766	0.5534	1.60047E-001	-1.27555E-005	0.00000E+000	1.60000E-001	8.15923E-005	8	..........a	-327.66
	2767	0.5536	1.50047E-001	-1.29255E-005	0.00000E+000	1.50000E-001	-2.18408E-004	8	..........a	-327.66
	2768	0.5538	1.40147E-001	-1.30355E-005	0.00000E+000	1.40000E-001	8.15923E-005	8	..........a	-327.66
	2769	0.554	1.30047E-001	-1.31755E-005	0.00000E+000	1.30000E-001	8.15923E-005	8	..........a	-327.66
	2770	0.5542	1.20247E-001	-1.32855E-005	0.00000E+000	1.20000E-001	8.15923E-005	8	..........a	-327.66
	2771	0.5544	1.10047E-001	-1.33255E-005	0.00000E+000	1.10000E-001	-3.18408E-004	8	..........a	-327.66
	2772	0.5546	1.00047E-001	-1.34355E-005	0.00000E+000	1.00000E-001	8.15923E-005	8	..........a	-327.66
	2773	0.5548	9.01471E-002	-1.35155E-005	0.00000E+000	9.00000E-002	-3.18408E-004	8	..........a	-327.66
	2774	0.555	8.00471E-002	-1.35555E-005	0.00000E+000	8.00000E-002	-3.18408E-004	8	..........a	-327.66
	2775	0.5552	7.01471E-002	-1.36355E-005	0.00000E+000	7.00000E-002	8.15923E-005	8	..........a	-327.66
	2776	0.5554	6.00471E-002	-1.37155E-005	0.00000E+000	6.00000E-002	8.15923E-005	8	..........a	-327.66
	2777	0.5556	5.00471E-002	-1.37055E-005	0.00000E+000	5.00000E-002	8.15923E-005	8	..........a	-327.66
	2778	0.5558	3.98471E-002	-1.37355E-005	0.00000E+000	4.00000E-002	8.15923E-005	8	..........a	-327.66
	2779	0.556	3.00471E-002	-1.37655E-005	0.00000E+000	3.00000E-002	8.15923E-005	8	..........a	-327.66
	2780	0.5562	2.01471E-002	-1.38055E-005	0.00000E+000	2.00000E-002	8.15923E-005	8	..........a	-327.66
	2781	0.5564	1.00471E-002	-1.37655E-005	0.00000E+000	1.00000E-002	8.15923E-005	8	..........a	-327.66
	2782	0.5566	4.71142E-005	-1.37655E-005	0.00000E+000	7.45058E-009	8.15923E-005	8	..........a	-327.66
	2783	0.5568	-9.95289E-003	-1.37955E-005	0.00000E+000	-1.00000E-002	8.15923E-005	8	..........a	-327.66
	2784	0.557	-1.98529E-002	-1.38055E-005	0.00000E+000	-2.00000E-002	8.15923E-005	8	..........a	-327.66
	2785	0.5572	-2.99529E-002	-1.37655E-005	0.00000E+000	-3.00000E-002	8.15923E-005	8	..........a	-327.66
	2786	0.5574	-3.98529E-002	-1.37255E-005	0.00000E+000	-4.00000E-002	8.15923E-005	8	..........a	-327.66
	2787	0.5576	-4.99529E-002	-1.36555E-005	0.00000E+000	-5.00000E-002	8.15923E-005	8	..........a	-327.66
	2788	0.5578	-5.99529E-002	-1.36555E-005	0.00000E+000	-6.00000E-002	8.15923E-005	8	..........a	-327.66
	2789	0.558	-6.99529E-002	-1.35955E-005	0.00000E+000	-7.00000E-002	8.15923E-005	8	..........a	-327.66
	2790	0.5582	-7.98529E-002	-1.35255E-005	0.00000E+000	-8.00000E-002	8.15923E-005	8	..........a	-327.66
	2791	0.5584	-8.98529E-002	-1.34455E-005	0.00000E+000	-9.00000E-002	8.15923E-005	8	..........a	-327.66
	2792	0.5586	-9.98529E-002	-1.33455E-005	0.00000E+000	-1.00000E-001	8.15923E-005	8	..........a	-327.66
	2793	0.5588	-1.09953E-001	-1.33055E-005	0.00000E+000	-1.10000E-001	8.15923E-005	8	..........a	-327.66
	2794	0.559	-1.19853E-001	-1.32055E-005	0.00000E+000	-1.20000E-001	8.15923E-005	8	..........a	-327.66
	2795	0.5592	-1.29953E-001	-1.31755E-005	0.00000E+000	-1.30000E-001	8.15923E-005	8	..........a	-327.66
	2796	0.5594	-1.40053E-001	-1.29855E-005	0.00000E+000	-1.40000E-001	8.15923E-005	8	..........a	-327.66
	2797	0.5596	-1.49953E-001	-1.28855E-005	0.00000E+000	-1.50000E-001	8.15923E-005	8	..........a	-327.66
	2798	0.5598	-1.59953E-001	-1.28455E-005	0.00000E+000	-1.60000E-001	8.15923E-005	8	..........a	-327.66
	2799	0.56	-1.69953E-001	-1.27655E-005	0.00000E+000	-1.70000E-001	8.15923E-005	8	..........a	-327.66
	2800	0.5602	-1.79953E-001	-1.25855E-005	0.00000E+000	-1.80000E-001	8.15923E-005	8	..........a	-327.66