File: data/raw/batch_data/20240321_ZZD_GM0016_HL03_E14_CV50k.DTA
EXPLAIN
TAG	CV
TITLE	LABEL	Cyclic Voltammetry	Test &Identifier
DATE	LABEL	3/21/2024	Date
TIME	LABEL	19:42:24	Time
NOTES	NOTES	1	&Notes...

PSTAT	PSTAT	REF600P-43058	Potentiostat
VINIT	POTEN	0.00000E+000	T	Initial &E (V)
VLIMIT1	POTEN	-6.00000E-001	F	Scan Limit &1 (V)
VLIMIT2	POTEN	8.00000E-001	F	Scan Limit &2 (V)
VFINAL	POTEN	0.00000E+000	T	Final &E (V)
SCANRATE	QUANT	4.99999E+004	&Scan Rate (mV/s)
STEPSIZE	QUANT	1.00000E+001	St&ep Size (mV)
CYCLES	IQUANT	10	C&ycles (#)
IMODE	SELECTOR	1	I/E Range &Mode
IRANGE	QUANT	1.00000E-005	&Max Current (mA)
AREA	QUANT	1.00000E+000	Electrode &Area (cm^2)
ELECTRODETYPE	SELECTOR	0	Electrode Type
STRIPPING	TOGGLE	F	Used for Stripping
POLARITY	TOGGLE	F	Signal Polarity
CONDIT	TWOPARAM	F	1.50000E+001	0.00000E+000	Conditionin&g	Time(s)	E(V)
DELAY	TWOPARAM	T	1.00000E+001	0.00000E+000	Init. De&lay	Time(s)	Stab.(mV/s)
EQDELAY	QUANT	1.00000E+001	Equil. &Time (s)
IRCOMP	SELECTOR	0	IRCom&p
PFCOR	QUANT	5.00000E+001	PF Corr. (ohm)
SAMPLINGMODE	SELECTOR	1	Sampling &Mode
OCVCURVE	TABLE	39
	Pt	T	Vf	Vm	Ach	Over	Temp
	#	s	V vs. Ref.	V	V	bits	deg C
	0	0.258333	4.29165E-001	4.29165E-001	2.45422E-004	..........a	-327.66
	1	0.516667	4.29171E-001	4.29484E-001	2.53622E-004	..........a	-327.66
	2	0.775	4.29204E-001	4.29584E-001	2.64156E-004	..........a	-327.66
	3	1.03333	4.29285E-001	4.29629E-001	2.48889E-004	..........a	-327.66
	4	1.29167	4.29403E-001	4.29754E-001	2.59422E-004	..........a	-327.66
	5	1.55	4.29527E-001	4.29884E-001	2.56089E-004	..........a	-327.66
	6	1.80833	4.29644E-001	4.29999E-001	2.53156E-004	..........a	-327.66
	7	2.06667	4.29758E-001	4.30179E-001	2.33156E-004	..........a	-327.66
	8	2.325	4.29880E-001	4.30343E-001	2.64956E-004	..........a	-327.66
	9	2.58333	4.30016E-001	4.30484E-001	2.69956E-004	..........a	-327.66
	10	2.84167	4.30165E-001	4.30637E-001	2.53689E-004	..........a	-327.66
	11	3.1	4.30319E-001	4.30819E-001	2.51356E-004	..........a	-327.66
	12	3.35833	4.30479E-001	4.31099E-001	2.36489E-004	..........a	-327.66
	13	3.61667	4.30650E-001	4.31203E-001	2.55889E-004	..........a	-327.66
	14	3.875	4.30831E-001	4.31222E-001	2.54156E-004	..........a	-327.66
	15	4.13333	4.31001E-001	4.31335E-001	2.35422E-004	..........a	-327.66
	16	4.39167	4.31138E-001	4.31486E-001	2.43156E-004	..........a	-327.66
	17	4.65	4.31251E-001	4.31619E-001	2.39222E-004	..........a	-327.66
	18	4.90833	4.31360E-001	4.31789E-001	2.52822E-004	..........a	-327.66
	19	5.16667	4.31483E-001	4.31957E-001	2.55822E-004	..........a	-327.66
	20	5.425	4.31624E-001	4.32118E-001	2.51689E-004	..........a	-327.66
	21	5.68333	4.31778E-001	4.32250E-001	2.23756E-004	..........a	-327.66
	22	5.94167	4.31936E-001	4.32406E-001	2.46089E-004	..........a	-327.66
	23	6.2	4.32095E-001	4.32695E-001	2.61489E-004	..........a	-327.66
	24	6.45833	4.32260E-001	4.32779E-001	2.69889E-004	..........a	-327.66
	25	6.71667	4.32432E-001	4.32814E-001	2.84156E-004	..........a	-327.66
	26	6.975	4.32594E-001	4.32960E-001	2.67156E-004	..........a	-327.66
	27	7.23333	4.32731E-001	4.33106E-001	2.32956E-004	..........a	-327.66
	28	7.49167	4.32850E-001	4.33264E-001	2.52422E-004	..........a	-327.66
	29	7.75	4.32972E-001	4.33471E-001	2.54756E-004	..........a	-327.66
	30	8.00833	4.33112E-001	4.33626E-001	2.63889E-004	..........a	-327.66
	31	8.26667	4.33269E-001	4.33777E-001	2.65422E-004	..........a	-327.66
	32	8.525	4.33436E-001	4.33905E-001	2.52156E-004	..........a	-327.66
	33	8.78333	4.33601E-001	4.34122E-001	2.40622E-004	..........a	-327.66
	34	9.04167	4.33764E-001	4.34375E-001	2.61022E-004	..........a	-327.66
	35	9.3	4.33935E-001	4.34429E-001	2.54222E-004	..........a	-327.66
	36	9.5583	4.34111E-001	4.34501E-001	2.47889E-004	..........a	-327.66
	37	9.8167	4.34273E-001	4.34650E-001	2.43422E-004	..........a	-327.66
	38	10.075	4.34408E-001	4.34772E-001	2.61689E-004	..........a	-327.66
EOC	QUANT	0.4344082	Open Circuit (V)
PSTATMODEL	IQUANT	7	Pstat Model
PSTATSECTION	LABEL	REF600P-43058	Pstat Section
PSTATSERIALNO	LABEL	43058	Pstat Serial Number
CTRLMODE	IQUANT	1	Control Mode
ELECTROMETER	IQUANT	0	RE=0 or CS=1
IESTAB	IQUANT	2	I/E Stability
CASPEED	IQUANT	4	Control Amp Speed
CONVENTION	IQUANT	1	Current Convention
ICHRANGE	IQUANT	2	Ich Range
ICHRANGEMODE	TOGGLE	F	Ich Auto Range
ICHOFFSETENABLE	TOGGLE	F	Ich Offset Enable
ICHOFFSET	QUANT	0	Ich Offset (V)
ICHFILTER	IQUANT	1	Ich Filter
VCHRANGE	IQUANT	2	Vch Range
VCHRANGEMODE	TOGGLE	F	Vch Auto Range
VCHOFFSETENABLE	TOGGLE	F	Vch Offset Enable
VCHOFFSET	QUANT	0	Vch Offset (V)
VCHFILTER	IQUANT	1	Vch Filter
ACHRANGE	IQUANT	2	Ach Range
ACHOFFSETENABLE	TOGGLE	F	Ach Offset Enable
ACHOFFSET	QUANT	0	Ach Offset (V)
ACHFILTER	IQUANT	1	Ach Filter
IERANGELOWERLIMIT	IQUANT	1	I/E Range Lower Limit
IERANGEMODE	TOGGLE	F	I/E AutoRange
IERANGE	IQUANT	4	I/E Range
POSFEEDENABLE	TOGGLE	F	Positive Feedback IR Comp
POSFEEDRESISTANCE	QUANT	0	Positive Feedback Resistance (ohm)
ACHSELECT	IQUANT	4	Ach Select
SENSECABLEID	IQUANT	7	Sense Cable ID
PWRCABLEID	IQUANT	7	Power Cable ID
DCCALDATE	LABEL	12/18/2023	DC Calibration Date
ACCALDATE	LABEL	12/18/2023	AC Calibration Date
THERMOSELECT	IQUANT	1	Thermo Select
FRAMEWORKVERSION	LABEL	7.8.4	Framework Version
INSTRUMENTVERSION	LABEL	4.42	Instrument Version
CURVE1	TABLE
	Pt	T	Vf	Im	Vu	Sig	Ach	IERange	Over	Temp
	#	s	V vs. Ref.	A	V	V	V	#	bits	deg C
	0	0.0002	4.34370E-001	2.17885E-011	0.00000E+000	4.34400E-001	8.00223E-005	4	..........a	-327.66
	3	0.0008	4.04270E-001	-1.14217E-010	0.00000E+000	4.04400E-001	8.00223E-005	4	..........a	-327.66
	6	0.0014	3.74170E-001	-2.72223E-010	0.00000E+000	3.74400E-001	-3.19978E-004	4	..........a	-327.66
	9	0.002	3.44370E-001	-4.50230E-010	0.00000E+000	3.44400E-001	8.00223E-005	4	..........a	-327.66
	12	0.0026	3.14370E-001	-6.54237E-010	0.00000E+000	3.14400E-001	-4.19978E-004	4	..........a	-327.66
	15	0.0032	2.84370E-001	-8.71246E-010	0.00000E+000	2.84400E-001	8.00223E-005	4	..........a	-327.66
	18	0.0038	2.54270E-001	-1.12226E-009	0.00000E+000	2.54400E-001	8.00223E-005	4	..........a	-327.66
	21	0.0044	2.24470E-001	-1.40227E-009	0.00000E+000	2.24400E-001	-1.19978E-004	4	..........a	-327.66
	24	0.005	1.94370E-001	-1.70628E-009	0.00000E+000	1.94400E-001	8.00223E-005	4	..........a	-327.66
	27	0.0056	1.64370E-001	-2.05529E-009	0.00000E+000	1.64400E-001	8.00223E-005	4	..........a	-327.66
	30	0.0062	1.34570E-001	-2.43131E-009	0.00000E+000	1.34400E-001	8.00223E-005	4	..........a	-327.66
	33	0.0068	1.04370E-001	-2.86232E-009	0.00000E+000	1.04400E-001	8.00223E-005	4	..........a	-327.66
	36	0.0074	7.45695E-002	-3.33134E-009	0.00000E+000	7.44000E-002	8.00223E-005	4	..........a	-327.66
	39	0.008	4.43695E-002	-3.85036E-009	0.00000E+000	4.44000E-002	-2.19978E-004	4	..........a	-327.66
	42	0.0086	1.45695E-002	-4.42038E-009	0.00000E+000	1.44000E-002	8.00223E-005	4	..........a	-327.66
	45	0.0092	-1.55305E-002	-5.02241E-009	0.00000E+000	-1.56000E-002	8.00223E-005	4	..........a	-327.66
	48	0.0098	-4.54305E-002	-5.66243E-009	0.00000E+000	-4.56000E-002	8.00223E-005	4	..........a	-327.66
	51	0.0104	-7.55305E-002	-6.34446E-009	0.00000E+000	-7.56000E-002	8.00223E-005	4	..........a	-327.66
	54	0.011	-1.05530E-001	-7.04948E-009	0.00000E+000	-1.05600E-001	-3.19978E-004	4	..........a	-327.66
	57	0.0116	-1.35430E-001	-7.77251E-009	0.00000E+000	-1.35600E-001	8.00223E-005	4	..........a	-327.66
	60	0.0122	-1.65430E-001	-8.51654E-009	0.00000E+000	-1.65600E-001	8.00223E-005	4	..........a	-327.66
	63	0.0128	-1.95530E-001	-9.25657E-009	0.00000E+000	-1.95600E-001	-4.19978E-004	4	..........a	-327.66
	66	0.0134	-2.25530E-001	-1.00056E-008	0.00000E+000	-2.25600E-001	8.00223E-005	4	..........a	-327.66
	69	0.014	-2.55530E-001	-1.07546E-008	0.00000E+000	-2.55600E-001	8.00223E-005	4	..........a	-327.66
	72	0.0146	-2.85330E-001	-1.15007E-008	0.00000E+000	-2.85600E-001	8.00223E-005	4	..........a	-327.66
	75	0.0152	-3.15530E-001	-1.22327E-008	0.00000E+000	-3.15600E-001	8.00223E-005	4	..........a	-327.66
	78	0.0158	-3.45530E-001	-1.29597E-008	0.00000E+000	-3.45600E-001	8.00223E-005	4	..........a	-327.66
	81	0.0164	-3.75430E-001	-1.36867E-008	0.00000E+000	-3.75600E-001	8.00223E-005	4	..........a	-327.66
	84	0.017	-4.05430E-001	-1.43948E-008	0.00000E+000	-4.05600E-001	8.00223E-005	4	..........a	-327.66
	87	0.0176	-4.35530E-001	-1.50948E-008	0.00000E+000	-4.35600E-001	8.00223E-005	4	..........a	-327.66
	90	0.0182	-4.65330E-001	-1.57938E-008	0.00000E+000	-4.65600E-001	8.00223E-005	4	..........a	-327.66
	93	0.0188	-4.95530E-001	-1.64968E-008	0.00000E+000	-4.95600E-001	8.00223E-005	4	..........a	-327.66
	96	0.0194	-5.25531E-001	-1.72089E-008	0.00000E+000	-5.25600E-001	8.00223E-005	4	..........a	-327.66
	99	0.02	-5.55430E-001	-1.79309E-008	0.00000E+000	-5.55600E-001	8.00223E-005	4	..........a	-327.66
	102	0.0206	-5.85530E-001	-1.86669E-008	0.00000E+000	-5.85600E-001	8.00223E-005	4	..........a	-327.66
	105	0.0212	-5.75530E-001	-1.90889E-008	0.00000E+000	-5.75600E-001	8.00223E-005	4	..........a	-327.66
	108	0.0218	-5.45530E-001	-1.91819E-008	0.00000E+000	-5.45600E-001	8.00223E-005	4	..........a	-327.66
	111	0.0224	-5.15431E-001	-1.91729E-008	0.00000E+000	-5.15600E-001	8.00223E-005	4	..........a	-327.66
	114	0.023	-4.85430E-001	-1.90899E-008	0.00000E+000	-4.85600E-001	8.00223E-005	4	..........a	-327.66
	117	0.0236	-4.55330E-001	-1.89649E-008	0.00000E+000	-4.55600E-001	8.00223E-005	4	..........a	-327.66
	120	0.0242	-4.25330E-001	-1.88049E-008	0.00000E+000	-4.25600E-001	8.00223E-005	4	..........a	-327.66
	123	0.0248	-3.95330E-001	-1.86159E-008	0.00000E+000	-3.95600E-001	-4.19978E-004	4	..........a	-327.66
	126	0.0254	-3.65330E-001	-1.84049E-008	0.00000E+000	-3.65600E-001	8.00223E-005	4	..........a	-327.66
	129	0.026	-3.35530E-001	-1.81689E-008	0.00000E+000	-3.35600E-001	8.00223E-005	4	..........a	-327.66
	132	0.0266	-3.05530E-001	-1.79169E-008	0.00000E+000	-3.05600E-001	8.00223E-005	4	..........a	-327.66
	135	0.0272	-2.75530E-001	-1.76509E-008	0.00000E+000	-2.75600E-001	8.00223E-005	4	..........a	-327.66
	138	0.0278	-2.45430E-001	-1.73669E-008	0.00000E+000	-2.45600E-001	8.00223E-005	4	..........a	-327.66
	141	0.0284	-2.15530E-001	-1.70629E-008	0.00000E+000	-2.15600E-001	8.00223E-005	4	..........a	-327.66
	144	0.029	-1.85430E-001	-1.67489E-008	0.00000E+000	-1.85600E-001	8.00223E-005	4	..........a	-327.66
	147	0.0296	-1.55530E-001	-1.64268E-008	0.00000E+000	-1.55600E-001	8.00223E-005	4	..........a	-327.66
	150	0.0302	-1.25430E-001	-1.60798E-008	0.00000E+000	-1.25600E-001	8.00223E-005	4	..........a	-327.66
	153	0.0308	-9.55305E-002	-1.57288E-008	0.00000E+000	-9.56000E-002	8.00223E-005	4	..........a	-327.66
	156	0.0314	-6.55305E-002	-1.53638E-008	0.00000E+000	-6.56000E-002	8.00223E-005	4	..........a	-327.66
	159	0.032	-3.55305E-002	-1.49868E-008	0.00000E+000	-3.56000E-002	8.00223E-005	4	..........a	-327.66
	162	0.0326	-5.38048E-003	-1.45868E-008	0.00000E+000	-5.60000E-003	8.00223E-005	4	..........a	-327.66
	165	0.0332	2.44695E-002	-1.41758E-008	0.00000E+000	2.44000E-002	8.00223E-005	4	..........a	-327.66
	168	0.0338	5.43695E-002	-1.37587E-008	0.00000E+000	5.44000E-002	8.00223E-005	4	..........a	-327.66
	171	0.0344	8.45695E-002	-1.33247E-008	0.00000E+000	8.44000E-002	8.00223E-005	4	..........a	-327.66
	174	0.035	1.14470E-001	-1.28747E-008	0.00000E+000	1.14400E-001	8.00223E-005	4	..........a	-327.66
	177	0.0356	1.44470E-001	-1.24037E-008	0.00000E+000	1.44400E-001	8.00223E-005	4	..........a	-327.66
	180	0.0362	1.74570E-001	-1.19197E-008	0.00000E+000	1.74400E-001	8.00223E-005	4	..........a	-327.66
	183	0.0368	2.04320E-001	-1.14057E-008	0.00000E+000	2.04400E-001	8.00223E-005	4	..........a	-327.66
	186	0.0374	2.34470E-001	-1.08766E-008	0.00000E+000	2.34400E-001	8.00223E-005	4	..........a	-327.66
	189	0.038	2.64470E-001	-1.03276E-008	0.00000E+000	2.64400E-001	8.00223E-005	4	..........a	-327.66
	192	0.0386	2.94470E-001	-9.75859E-009	0.00000E+000	2.94400E-001	8.00223E-005	4	..........a	-327.66
	195	0.0392	3.24470E-001	-9.15656E-009	0.00000E+000	3.24400E-001	-4.19978E-004	4	..........a	-327.66
	198	0.0398	3.54470E-001	-8.53854E-009	0.00000E+000	3.54400E-001	-3.19978E-004	4	..........a	-327.66
	201	0.0404	3.84220E-001	-7.90352E-009	0.00000E+000	3.84400E-001	8.00223E-005	4	..........a	-327.66
	204	0.041	4.14320E-001	-7.25049E-009	0.00000E+000	4.14400E-001	8.00223E-005	4	..........a	-327.66
	207	0.0416	4.44470E-001	-6.57446E-009	0.00000E+000	4.44400E-001	8.00223E-005	4	..........a	-327.66
	210	0.0422	4.74620E-001	-5.88444E-009	0.00000E+000	4.74400E-001	8.00223E-005	4	..........a	-327.66
	213	0.0428	5.04369E-001	-5.17641E-009	0.00000E+000	5.04400E-001	8.00223E-005	4	..........a	-327.66
	216	0.0434	5.34570E-001	-4.43538E-009	0.00000E+000	5.34400E-001	8.00223E-005	4	..........a	-327.66
	219	0.044	5.64369E-001	-3.67635E-009	0.00000E+000	5.64400E-001	8.00223E-005	4	..........a	-327.66
	222	0.0446	5.94269E-001	-2.89032E-009	0.00000E+000	5.94400E-001	8.00223E-005	4	..........a	-327.66
	225	0.0452	6.24370E-001	-2.08629E-009	0.00000E+000	6.24400E-001	8.00223E-005	4	..........a	-327.66
	228	0.0458	6.54269E-001	-1.24726E-009	0.00000E+000	6.54400E-001	8.00223E-005	4	..........a	-327.66
	231	0.0464	6.84269E-001	-3.80227E-010	0.00000E+000	6.84400E-001	8.00223E-005	4	..........a	-327.66
	234	0.047	7.14170E-001	5.19808E-010	0.00000E+000	7.14400E-001	8.00223E-005	4	..........a	-327.66
	237	0.0476	7.44319E-001	1.45384E-009	0.00000E+000	7.44400E-001	8.00223E-005	4	..........a	-327.66
	240	0.0482	7.74119E-001	2.43288E-009	0.00000E+000	7.74400E-001	8.00223E-005	4	..........a	-327.66
	243	0.0488	8.04269E-001	3.45192E-009	0.00000E+000	8.04400E-001	8.00223E-005	4	..........a	-327.66
CURVE2	TABLE
	Pt	T	Vf	Im	Vu	Sig	Ach	IERange	Over	Temp
	#	s	V vs. Ref.	A	V	V	V	#	bits	deg C
	244	0.049	7.89869E-001	3.61993E-009	0.00000E+000	7.90000E-001	8.00223E-005	4	..........a	-327.66
	247	0.0496	7.59869E-001	3.93994E-009	0.00000E+000	7.60000E-001	8.00223E-005	4	..........a	-327.66
	250	0.0502	7.29869E-001	4.07494E-009	0.00000E+000	7.30000E-001	8.00223E-005	4	..........a	-327.66
	253	0.0508	6.99869E-001	4.10195E-009	0.00000E+000	7.00000E-001	8.00223E-005	4	..........a	-327.66
	256	0.0514	6.69969E-001	4.05694E-009	0.00000E+000	6.70000E-001	8.00223E-005	4	..........a	-327.66
	259	0.052	6.39870E-001	3.96094E-009	0.00000E+000	6.40000E-001	8.00223E-005	4	..........a	-327.66
	262	0.0526	6.09670E-001	3.82293E-009	0.00000E+000	6.10000E-001	8.00223E-005	4	..........a	-327.66
	265	0.0532	5.80169E-001	3.65793E-009	0.00000E+000	5.80000E-001	-3.19978E-004	4	..........a	-327.66
	268	0.0538	5.50070E-001	3.46592E-009	0.00000E+000	5.50000E-001	8.00223E-005	4	..........a	-327.66
	271	0.0544	5.19870E-001	3.24391E-009	0.00000E+000	5.20000E-001	8.00223E-005	4	..........a	-327.66
	274	0.055	4.89870E-001	3.00190E-009	0.00000E+000	4.90000E-001	8.00223E-005	4	..........a	-327.66
	277	0.0556	4.59870E-001	2.73189E-009	0.00000E+000	4.60000E-001	8.00223E-005	4	..........a	-327.66
	280	0.0562	4.29870E-001	2.44088E-009	0.00000E+000	4.30000E-001	8.00223E-005	4	..........a	-327.66
	283	0.0568	3.99870E-001	2.11987E-009	0.00000E+000	4.00000E-001	8.00223E-005	4	..........a	-327.66
	286	0.0574	3.69770E-001	1.77686E-009	0.00000E+000	3.70000E-001	8.00223E-005	4	..........a	-327.66
	289	0.058	3.40170E-001	1.40284E-009	0.00000E+000	3.40000E-001	8.00223E-005	4	..........a	-327.66
	292	0.0586	3.10070E-001	9.92826E-010	0.00000E+000	3.10000E-001	8.00223E-005	4	..........a	-327.66
	295	0.0592	2.79870E-001	5.56809E-010	0.00000E+000	2.80000E-001	8.00223E-005	4	..........a	-327.66
	298	0.0598	2.49870E-001	8.97911E-011	0.00000E+000	2.50000E-001	-3.19978E-004	4	..........a	-327.66
	301	0.0604	2.20170E-001	-4.10228E-010	0.00000E+000	2.20000E-001	8.00223E-005	4	..........a	-327.66
	304	0.061	1.90070E-001	-9.38248E-010	0.00000E+000	1.90000E-001	8.00223E-005	4	..........a	-327.66
	307	0.0616	1.59970E-001	-1.49627E-009	0.00000E+000	1.60000E-001	8.00223E-005	4	..........a	-327.66
	310	0.0622	1.30070E-001	-2.07929E-009	0.00000E+000	1.30000E-001	8.00223E-005	4	..........a	-327.66
	313	0.0628	1.00170E-001	-2.67131E-009	0.00000E+000	1.00000E-001	-3.19978E-004	4	..........a	-327.66
	316	0.0634	6.98695E-002	-3.28434E-009	0.00000E+000	7.00000E-002	8.00223E-005	4	..........a	-327.66
	319	0.064	3.99695E-002	-3.88836E-009	0.00000E+000	4.00000E-002	8.00223E-005	4	..........a	-327.66
	322	0.0646	1.00695E-002	-4.49538E-009	0.00000E+000	1.00000E-002	8.00223E-005	4	..........a	-327.66
	325	0.0652	-1.99305E-002	-5.09441E-009	0.00000E+000	-2.00000E-002	8.00223E-005	4	..........a	-327.66
	328	0.0658	-4.99305E-002	-5.67843E-009	0.00000E+000	-5.00000E-002	8.00223E-005	4	..........a	-327.66
	331	0.0664	-8.01305E-002	-6.25245E-009	0.00000E+000	-8.00000E-002	8.00223E-005	4	..........a	-327.66
	334	0.067	-1.10030E-001	-6.81047E-009	0.00000E+000	-1.10000E-001	8.00223E-005	4	..........a	-327.66
	337	0.0676	-1.39730E-001	-7.35649E-009	0.00000E+000	-1.40000E-001	8.00223E-005	4	..........a	-327.66
	340	0.0682	-1.69930E-001	-7.89152E-009	0.00000E+000	-1.70000E-001	8.00223E-005	4	..........a	-327.66
	343	0.0688	-2.00030E-001	-8.41654E-009	0.00000E+000	-2.00000E-001	8.00223E-005	4	..........a	-327.66
	346	0.0694	-2.29830E-001	-8.93456E-009	0.00000E+000	-2.30000E-001	8.00223E-005	4	..........a	-327.66
	349	0.07	-2.59730E-001	-9.43858E-009	0.00000E+000	-2.60000E-001	8.00223E-005	4	..........a	-327.66
	352	0.0706	-2.89930E-001	-9.94259E-009	0.00000E+000	-2.90000E-001	8.00223E-005	4	..........a	-327.66
[...]
	2622	0.5246	-5.89930E-001	-9.47158E-009	0.00000E+000	-5.90000E-001	8.00223E-005	4	..........a	-327.66
	2625	0.5252	-5.79930E-001	-9.77459E-009	0.00000E+000	-5.80000E-001	-4.19978E-004	4	..........a	-327.66
	2628	0.5258	-5.49931E-001	-9.82159E-009	0.00000E+000	-5.50000E-001	8.00223E-005	4	..........a	-327.66
	2631	0.5264	-5.19880E-001	-9.79259E-009	0.00000E+000	-5.20000E-001	8.00223E-005	4	..........a	-327.66
	2634	0.527	-4.89930E-001	-9.71459E-009	0.00000E+000	-4.90000E-001	8.00223E-005	4	..........a	-327.66
	2637	0.5276	-4.59830E-001	-9.60258E-009	0.00000E+000	-4.60000E-001	8.00223E-005	4	..........a	-327.66
	2640	0.5282	-4.29830E-001	-9.46158E-009	0.00000E+000	-4.30000E-001	8.00223E-005	4	..........a	-327.66
	2643	0.5288	-3.99830E-001	-9.30257E-009	0.00000E+000	-4.00000E-001	8.00223E-005	4	..........a	-327.66
	2646	0.5294	-3.69930E-001	-9.12456E-009	0.00000E+000	-3.70000E-001	8.00223E-005	4	..........a	-327.66
	2649	0.53	-3.39730E-001	-8.92356E-009	0.00000E+000	-3.40000E-001	8.00223E-005	4	..........a	-327.66
	2652	0.5306	-3.09930E-001	-8.71055E-009	0.00000E+000	-3.10000E-001	8.00223E-005	4	..........a	-327.66
	2655	0.5312	-2.80030E-001	-8.48254E-009	0.00000E+000	-2.80000E-001	8.00223E-005	4	..........a	-327.66
	2658	0.5318	-2.49930E-001	-8.24253E-009	0.00000E+000	-2.50000E-001	8.00223E-005	4	..........a	-327.66
	2661	0.5324	-2.20030E-001	-7.98052E-009	0.00000E+000	-2.20000E-001	8.00223E-005	4	..........a	-327.66
	2664	0.533	-1.89930E-001	-7.71451E-009	0.00000E+000	-1.90000E-001	8.00223E-005	4	..........a	-327.66
	2667	0.5336	-1.60030E-001	-7.43150E-009	0.00000E+000	-1.60000E-001	8.00223E-005	4	..........a	-327.66
	2670	0.5342	-1.29930E-001	-7.13549E-009	0.00000E+000	-1.30000E-001	8.00223E-005	4	..........a	-327.66
	2673	0.5348	-9.98305E-002	-6.84048E-009	0.00000E+000	-1.00000E-001	8.00223E-005	4	..........a	-327.66
	2676	0.5354	-6.99305E-002	-6.53046E-009	0.00000E+000	-7.00000E-002	8.00223E-005	4	..........a	-327.66
	2679	0.536	-3.99305E-002	-6.20345E-009	0.00000E+000	-4.00000E-002	8.00223E-005	4	..........a	-327.66
	2682	0.5366	-9.93048E-003	-5.86844E-009	0.00000E+000	-1.00000E-002	8.00223E-005	4	..........a	-327.66
	2685	0.5372	1.98195E-002	-5.51842E-009	0.00000E+000	2.00000E-002	8.00223E-005	4	..........a	-327.66
	2688	0.5378	4.99695E-002	-5.15841E-009	0.00000E+000	5.00000E-002	8.00223E-005	4	..........a	-327.66
	2691	0.5384	7.98695E-002	-4.78340E-009	0.00000E+000	8.00000E-002	8.00223E-005	4	..........a	-327.66
	2694	0.539	1.09970E-001	-4.39238E-009	0.00000E+000	1.10000E-001	8.00223E-005	4	..........a	-327.66
	2697	0.5396	1.40170E-001	-3.97737E-009	0.00000E+000	1.40000E-001	8.00223E-005	4	..........a	-327.66
	2700	0.5402	1.69970E-001	-3.55035E-009	0.00000E+000	1.70000E-001	-2.19978E-004	4	..........a	-327.66
	2703	0.5408	2.00070E-001	-3.10833E-009	0.00000E+000	2.00000E-001	8.00223E-005	4	..........a	-327.66
	2706	0.5414	2.29870E-001	-2.62831E-009	0.00000E+000	2.30000E-001	8.00223E-005	4	..........a	-327.66
	2709	0.542	2.60220E-001	-2.13029E-009	0.00000E+000	2.60000E-001	8.00223E-005	4	..........a	-327.66
	2712	0.5426	2.90170E-001	-1.60827E-009	0.00000E+000	2.90000E-001	8.00223E-005	4	..........a	-327.66
	2715	0.5432	3.20170E-001	-1.06125E-009	0.00000E+000	3.20000E-001	8.00223E-005	4	..........a	-327.66
	2718	0.5438	3.50070E-001	-4.98232E-010	0.00000E+000	3.50000E-001	8.00223E-005	4	..........a	-327.66
	2721	0.5444	3.79970E-001	9.17912E-011	0.00000E+000	3.80000E-001	-2.19978E-004	4	..........a	-327.66
	2724	0.545	4.09970E-001	7.08815E-010	0.00000E+000	4.10000E-001	-2.19978E-004	4	..........a	-327.66
	2727	0.5456	4.39970E-001	1.33284E-009	0.00000E+000	4.40000E-001	8.00223E-005	4	..........a	-327.66
	2730	0.5462	4.70070E-001	1.98486E-009	0.00000E+000	4.70000E-001	8.00223E-005	4	..........a	-327.66
	2733	0.5468	5.00120E-001	2.65689E-009	0.00000E+000	5.00000E-001	8.00223E-005	4	..........a	-327.66
	2736	0.5474	5.29869E-001	3.35192E-009	0.00000E+000	5.30000E-001	-2.19978E-004	4	..........a	-327.66
	2739	0.548	5.59969E-001	4.06594E-009	0.00000E+000	5.60000E-001	8.00223E-005	4	..........a	-327.66
	2742	0.5486	5.89969E-001	4.80597E-009	0.00000E+000	5.90000E-001	8.00223E-005	4	..........a	-327.66
	2745	0.5492	6.19869E-001	5.57400E-009	0.00000E+000	6.20000E-001	8.00223E-005	4	..........a	-327.66
	2748	0.5498	6.49870E-001	6.36003E-009	0.00000E+000	6.50000E-001	8.00223E-005	4	..........a	-327.66
	2751	0.5504	6.79669E-001	7.18506E-009	0.00000E+000	6.80000E-001	8.00223E-005	4	..........a	-327.66
	2754	0.551	7.09969E-001	8.03310E-009	0.00000E+000	7.10000E-001	8.00223E-005	4	..........a	-327.66
	2757	0.5516	7.40070E-001	8.91613E-009	0.00000E+000	7.40000E-001	8.00223E-005	4	..........a	-327.66
	2760	0.5522	7.69769E-001	9.83517E-009	0.00000E+000	7.70000E-001	8.00223E-005	4	..........a	-327.66
	2763	0.5528	7.99869E-001	1.08052E-008	0.00000E+000	8.00000E-001	8.00223E-005	4	..........a	-327.66
CURVE11	TABLE
	Pt	T	Vf	Im	Vu	Sig	Ach	IERange	Over	Temp
	#	s	V vs. Ref.	A	V	V	V	#	bits	deg C
	2764	0.553	7.89869E-001	1.09872E-008	0.00000E+000	7.90000E-001	8.00223E-005	4	..........a	-327.66
	2765	0.5532	7.79869E-001	1.11212E-008	0.00000E+000	7.80000E-001	8.00223E-005	4	..........a	-327.66
	2766	0.5534	7.69969E-001	1.12142E-008	0.00000E+000	7.70000E-001	8.00223E-005	4	..........a	-327.66
	2767	0.5536	7.59869E-001	1.12862E-008	0.00000E+000	7.60000E-001	8.00223E-005	4	..........a	-327.66
	2768	0.5538	7.49869E-001	1.13322E-008	0.00000E+000	7.50000E-001	-4.19978E-004	4	..........a	-327.66
	2769	0.554	7.39869E-001	1.13672E-008	0.00000E+000	7.40000E-001	8.00223E-005	4	..........a	-327.66
	2770	0.5542	7.29869E-001	1.13842E-008	0.00000E+000	7.30000E-001	8.00223E-005	4	..........a	-327.66
	2771	0.5544	7.19969E-001	1.13872E-008	0.00000E+000	7.20000E-001	-1.19978E-004	4	..........a	-327.66
	2772	0.5546	7.09870E-001	1.13782E-008	0.00000E+000	7.10000E-001	8.00223E-005	4	..........a	-327.66
	2773	0.5548	6.99769E-001	1.13582E-008	0.00000E+000	7.00000E-001	8.00223E-005	4	..........a	-327.66
	2774	0.555	6.89869E-001	1.13362E-008	0.00000E+000	6.90000E-001	-3.19978E-004	4	..........a	-327.66
	2775	0.5552	6.80070E-001	1.13062E-008	0.00000E+000	6.80000E-001	8.00223E-005	4	..........a	-327.66
	2776	0.5554	6.69869E-001	1.12722E-008	0.00000E+000	6.70000E-001	8.00223E-005	4	..........a	-327.66
	2777	0.5556	6.59769E-001	1.12262E-008	0.00000E+000	6.60000E-001	8.00223E-005	4	..........a	-327.66
	2778	0.5558	6.49769E-001	1.11772E-008	0.00000E+000	6.50000E-001	8.00223E-005	4	..........a	-327.66
	2779	0.556	6.39769E-001	1.11222E-008	0.00000E+000	6.40000E-001	8.00223E-005	4	..........a	-327.66
	2780	0.5562	6.29869E-001	1.10672E-008	0.00000E+000	6.30000E-001	-3.19978E-004	4	..........a	-327.66
	2781	0.5564	6.19969E-001	1.10022E-008	0.00000E+000	6.20000E-001	8.00223E-005	4	..........a	-327.66
	2782	0.5566	6.09969E-001	1.09382E-008	0.00000E+000	6.10000E-001	8.00223E-005	4	..........a	-327.66
	2783	0.5568	5.99769E-001	1.08632E-008	0.00000E+000	6.00000E-001	8.00223E-005	4	..........a	-327.66
	2784	0.557	5.89769E-001	1.07932E-008	0.00000E+000	5.90000E-001	8.00223E-005	4	..........a	-327.66
	2785	0.5572	5.79669E-001	1.07182E-008	0.00000E+000	5.80000E-001	8.00223E-005	4	..........a	-327.66
	2786	0.5574	5.69869E-001	1.06322E-008	0.00000E+000	5.70000E-001	8.00223E-005	4	..........a	-327.66
	2787	0.5576	5.59569E-001	1.05502E-008	0.00000E+000	5.60000E-001	8.00223E-005	4	..........a	-327.66
	2788	0.5578	5.50070E-001	1.04582E-008	0.00000E+000	5.50000E-001	8.00223E-005	4	..........a	-327.66
	2789	0.558	5.39869E-001	1.03732E-008	0.00000E+000	5.40000E-001	8.00223E-005	4	..........a	-327.66
	2790	0.5582	5.30069E-001	1.02812E-008	0.00000E+000	5.30000E-001	8.00223E-005	4	..........a	-327.66
	2791	0.5584	5.20069E-001	1.01852E-008	0.00000E+000	5.20000E-001	8.00223E-005	4	..........a	-327.66
	2792	0.5586	5.09969E-001	1.00852E-008	0.00000E+000	5.10000E-001	8.00223E-005	4	..........a	-327.66
	2793	0.5588	5.00069E-001	9.98017E-009	0.00000E+000	5.00000E-001	8.00223E-005	4	..........a	-327.66
	2794	0.559	4.90070E-001	9.87717E-009	0.00000E+000	4.90000E-001	8.00223E-005	4	..........a	-327.66
	2795	0.5592	4.79870E-001	9.77016E-009	0.00000E+000	4.80000E-001	8.00223E-005	4	..........a	-327.66
	2796	0.5594	4.69970E-001	9.65816E-009	0.00000E+000	4.70000E-001	8.00223E-005	4	..........a	-327.66
	2797	0.5596	4.60170E-001	9.54415E-009	0.00000E+000	4.60000E-001	8.00223E-005	4	..........a	-327.66
	2798	0.5598	4.49670E-001	9.42415E-009	0.00000E+000	4.50000E-001	8.00223E-005	4	..........a	-327.66
	2799	0.56	4.40170E-001	9.30615E-009	0.00000E+000	4.40000E-001	8.00223E-005	4	..........a	-327.66
	2800	0.5602	4.29870E-001	9.18714E-009	0.00000E+000	4.30000E-001	8.00223E-005	4	..........a	-327.66