File: data/raw/batch_data/20240321_ZA_GM0016_HL03_E07_CV50.DTA
EXPLAIN
TAG	CV
TITLE	LABEL	Cyclic Voltammetry	Test &Identifier
DATE	LABEL	3/21/2024	Date
TIME	LABEL	17:59:49	Time
NOTES	NOTES	1	&Notes...

PSTAT	PSTAT	REF600P-43058	Potentiostat
VINIT	POTEN	0.00000E+000	T	Initial &E (V)
VLIMIT1	POTEN	-6.00000E-001	F	Scan Limit &1 (V)
VLIMIT2	POTEN	8.00000E-001	F	Scan Limit &2 (V)
VFINAL	POTEN	0.00000E+000	T	Final &E (V)
SCANRATE	QUANT	4.99999E+001	&Scan Rate (mV/s)
STEPSIZE	QUANT	1.00000E+001	St&ep Size (mV)
CYCLES	IQUANT	4	C&ycles (#)
IMODE	SELECTOR	1	I/E Range &Mode
IRANGE	QUANT	1.00000E-005	&Max Current (mA)
AREA	QUANT	1.00000E+000	Electrode &Area (cm^2)
ELECTRODETYPE	SELECTOR	0	Electrode Type
STRIPPING	TOGGLE	F	Used for Stripping
POLARITY	TOGGLE	F	Signal Polarity
CONDIT	TWOPARAM	F	1.50000E+001	0.00000E+000	Conditionin&g	Time(s)	E(V)
DELAY	TWOPARAM	T	1.00000E+001	0.00000E+000	Init. De&lay	Time(s)	Stab.(mV/s)
EQDELAY	QUANT	1.00000E+001	Equil. &Time (s)
IRCOMP	SELECTOR	0	IRCom&p
PFCOR	QUANT	5.00000E+001	PF Corr. (ohm)
SAMPLINGMODE	SELECTOR	1	Sampling &Mode
OCVCURVE	TABLE	39
	Pt	T	Vf	Vm	Ach	Over	Temp
	#	s	V vs. Ref.	V	V	bits	deg C
	0	0.258333	2.93081E-001	2.93081E-001	2.36022E-004	..........a	-327.66
	1	0.516667	2.93085E-001	2.93257E-001	2.32889E-004	..........a	-327.66
	2	0.775	2.93108E-001	2.93578E-001	2.40556E-004	..........a	-327.66
	3	1.03333	2.93185E-001	2.93878E-001	2.27556E-004	..........a	-327.66
	4	1.29167	2.93342E-001	2.94281E-001	2.27222E-004	..........a	-327.66
	5	1.55	2.93584E-001	2.94687E-001	2.45756E-004	..........a	-327.66
	6	1.80833	2.93899E-001	2.95187E-001	2.44356E-004	..........a	-327.66
	7	2.06667	2.94269E-001	2.95446E-001	2.34422E-004	..........a	-327.66
	8	2.325	2.94667E-001	2.95862E-001	2.25356E-004	..........a	-327.66
	9	2.58333	2.95063E-001	2.96064E-001	2.18689E-004	..........a	-327.66
	10	2.84167	2.95441E-001	2.96922E-001	2.39422E-004	..........a	-327.66
	11	3.1	2.95829E-001	2.97276E-001	2.37556E-004	..........a	-327.66
	12	3.35833	2.96264E-001	2.97771E-001	2.43222E-004	..........a	-327.66
	13	3.61667	2.96746E-001	2.98380E-001	2.38689E-004	..........a	-327.66
	14	3.875	2.97249E-001	2.98597E-001	2.28156E-004	..........a	-327.66
	15	4.13333	2.97743E-001	2.99096E-001	2.39822E-004	..........a	-327.66
	16	4.39167	2.98205E-001	2.99498E-001	2.35956E-004	..........a	-327.66
	17	4.65	2.98639E-001	3.00036E-001	2.49489E-004	..........a	-327.66
	18	4.90833	2.99066E-001	3.00352E-001	2.33356E-004	..........a	-327.66
	19	5.16667	2.99499E-001	3.00858E-001	2.43022E-004	..........a	-327.66
	20	5.425	2.99937E-001	3.01426E-001	2.35756E-004	..........a	-327.66
	21	5.68333	3.00385E-001	3.01720E-001	2.42489E-004	..........a	-327.66
	22	5.94167	3.00840E-001	3.02144E-001	2.36689E-004	..........a	-327.66
	23	6.2	3.01286E-001	3.02603E-001	2.35822E-004	..........a	-327.66
	24	6.45833	3.01718E-001	3.03177E-001	2.36022E-004	..........a	-327.66
	25	6.71667	3.02153E-001	3.03432E-001	2.35756E-004	..........a	-327.66
	26	6.975	3.02594E-001	3.03871E-001	2.39222E-004	..........a	-327.66
	27	7.23333	3.03026E-001	3.04279E-001	2.44222E-004	..........a	-327.66
	28	7.49167	3.03443E-001	3.04811E-001	2.50289E-004	..........a	-327.66
	29	7.75	3.03858E-001	3.05106E-001	2.43022E-004	..........a	-327.66
	30	8.00833	3.04279E-001	3.05576E-001	2.51889E-004	..........a	-327.66
	31	8.26667	3.04700E-001	3.05955E-001	2.32156E-004	..........a	-327.66
	32	8.525	3.05117E-001	3.06444E-001	2.47089E-004	..........a	-327.66
	33	8.78333	3.05532E-001	3.06755E-001	2.35556E-004	..........a	-327.66
	34	9.04167	3.05946E-001	3.07214E-001	2.44489E-004	..........a	-327.66
	35	9.3	3.06358E-001	3.07622E-001	2.36222E-004	..........a	-327.66
	36	9.5583	3.06767E-001	3.08069E-001	2.43156E-004	..........a	-327.66
	37	9.8167	3.07178E-001	3.08402E-001	2.34622E-004	..........a	-327.66
	38	10.075	3.07591E-001	3.08826E-001	2.46622E-004	..........a	-327.66
EOC	QUANT	0.3075907	Open Circuit (V)
PSTATMODEL	IQUANT	7	Pstat Model
PSTATSECTION	LABEL	REF600P-43058	Pstat Section
PSTATSERIALNO	LABEL	43058	Pstat Serial Number
CTRLMODE	IQUANT	1	Control Mode
ELECTROMETER	IQUANT	0	RE=0 or CS=1
IESTAB	IQUANT	2	I/E Stability
CASPEED	IQUANT	4	Control Amp Speed
CONVENTION	IQUANT	1	Current Convention
ICHRANGE	IQUANT	2	Ich Range
ICHRANGEMODE	TOGGLE	F	Ich Auto Range
ICHOFFSETENABLE	TOGGLE	F	Ich Offset Enable
ICHOFFSET	QUANT	0	Ich Offset (V)
ICHFILTER	IQUANT	2	Ich Filter
VCHRANGE	IQUANT	2	Vch Range
VCHRANGEMODE	TOGGLE	F	Vch Auto Range
VCHOFFSETENABLE	TOGGLE	F	Vch Offset Enable
VCHOFFSET	QUANT	0	Vch Offset (V)
VCHFILTER	IQUANT	2	Vch Filter
ACHRANGE	IQUANT	2	Ach Range
ACHOFFSETENABLE	TOGGLE	F	Ach Offset Enable
ACHOFFSET	QUANT	0	Ach Offset (V)
ACHFILTER	IQUANT	1	Ach Filter
IERANGELOWERLIMIT	IQUANT	1	I/E Range Lower Limit
IERANGEMODE	TOGGLE	F	I/E AutoRange
IERANGE	IQUANT	4	I/E Range
POSFEEDENABLE	TOGGLE	F	Positive Feedback IR Comp
POSFEEDRESISTANCE	QUANT	0	Positive Feedback Resistance (ohm)
ACHSELECT	IQUANT	4	Ach Select
SENSECABLEID	IQUANT	7	Sense Cable ID
PWRCABLEID	IQUANT	7	Power Cable ID
DCCALDATE	LABEL	12/18/2023	DC Calibration Date
ACCALDATE	LABEL	12/18/2023	AC Calibration Date
THERMOSELECT	IQUANT	1	Thermo Select
FRAMEWORKVERSION	LABEL	7.8.4	Framework Version
INSTRUMENTVERSION	LABEL	4.42	Instrument Version
CURVE1	TABLE
	Pt	T	Vf	Im	Vu	Sig	Ach	IERange	Over	Temp
	#	s	V vs. Ref.	A	V	V	V	#	bits	deg C
	0	0.2	3.07502E-001	1.62684E-011	0.00000E+000	3.07600E-001	9.75122E-004	4	..........a	-327.66
	3	0.8	2.77625E-001	-1.12056E-011	0.00000E+000	2.77600E-001	9.88922E-004	4	..........a	-327.66
	6	1.4	2.47597E-001	-2.38401E-011	0.00000E+000	2.47600E-001	9.99122E-004	4	..........a	-327.66
	9	2	2.17584E-001	-3.48655E-011	0.00000E+000	2.17600E-001	1.00372E-003	4	..........a	-327.66
	12	2.6	1.87684E-001	-4.01687E-011	0.00000E+000	1.87600E-001	9.88522E-004	4	..........a	-327.66
	15	3.2	1.57662E-001	-4.67150E-011	0.00000E+000	1.57600E-001	1.00062E-003	4	..........a	-327.66
	18	3.8	1.27611E-001	-5.27432E-011	0.00000E+000	1.27600E-001	1.00282E-003	4	..........a	-327.66
	21	4.4	9.76483E-002	-5.65894E-011	0.00000E+000	9.76000E-002	9.89322E-004	4	..........a	-327.66
	24	5	6.76920E-002	-6.38266E-011	0.00000E+000	6.76000E-002	9.64522E-004	4	..........a	-327.66
	27	5.6	3.76760E-002	-6.81538E-011	0.00000E+000	3.76000E-002	9.86522E-004	4	..........a	-327.66
	30	6.2	7.68834E-003	-7.23990E-011	0.00000E+000	7.60000E-003	1.00282E-003	4	..........a	-327.66
	33	6.8	-2.23804E-002	-7.99753E-011	0.00000E+000	-2.24000E-002	9.93522E-004	4	..........a	-327.66
	36	7.4	-5.23030E-002	-8.81426E-011	0.00000E+000	-5.24000E-002	9.97522E-004	4	..........a	-327.66
	39	8	-8.23130E-002	-9.66869E-011	0.00000E+000	-8.24000E-002	9.88422E-004	4	..........a	-327.66
	42	8.6	-1.12421E-001	-1.08078E-010	0.00000E+000	-1.12400E-001	9.87122E-004	4	..........a	-327.66
	45	9.2	-1.42366E-001	-1.20989E-010	0.00000E+000	-1.42400E-001	9.99322E-004	4	..........a	-327.66
	48	9.8	-1.72351E-001	-1.36006E-010	0.00000E+000	-1.72400E-001	9.88722E-004	4	..........a	-327.66
	51	10.4	-2.02357E-001	-1.52937E-010	0.00000E+000	-2.02400E-001	9.93722E-004	4	..........a	-327.66
	54	11	-2.32411E-001	-1.73148E-010	0.00000E+000	-2.32400E-001	1.00742E-003	4	..........a	-327.66
	57	11.6	-2.62412E-001	-1.96047E-010	0.00000E+000	-2.62400E-001	1.02372E-003	4	..........a	-327.66
	60	12.2	-2.92345E-001	-2.22833E-010	0.00000E+000	-2.92400E-001	9.96122E-004	4	..........a	-327.66
	63	12.8	-3.22285E-001	-2.51893E-010	0.00000E+000	-3.22400E-001	1.00422E-003	4	..........a	-327.66
	66	13.4	-3.52321E-001	-2.91173E-010	0.00000E+000	-3.52400E-001	9.99722E-004	4	..........a	-327.66
	69	14	-3.82265E-001	-3.22288E-010	0.00000E+000	-3.82400E-001	9.88822E-004	4	..........a	-327.66
	72	14.6	-4.12259E-001	-3.54259E-010	0.00000E+000	-4.12400E-001	9.89522E-004	4	..........a	-327.66
	75	15.2	-4.42296E-001	-4.15403E-010	0.00000E+000	-4.42400E-001	1.01642E-003	4	..........a	-327.66
	78	15.8	-4.72081E-001	-4.70090E-010	0.00000E+000	-4.72400E-001	1.00062E-003	4	..........a	-327.66
	81	16.4	-5.02258E-001	-5.37518E-010	0.00000E+000	-5.02400E-001	1.00832E-003	4	..........a	-327.66
	84	17	-5.32250E-001	-6.18123E-010	0.00000E+000	-5.32400E-001	9.96922E-004	4	..........a	-327.66
	87	17.6	-5.62253E-001	-7.17441E-010	0.00000E+000	-5.62400E-001	1.00542E-003	4	..........a	-327.66
	90	18.2	-5.92272E-001	-8.41116E-010	0.00000E+000	-5.92400E-001	9.79822E-004	4	..........a	-327.66
	93	18.8	-5.82286E-001	-6.39318E-010	0.00000E+000	-5.82400E-001	9.81522E-004	4	..........a	-327.66
	96	19.4	-5.52262E-001	-4.32475E-010	0.00000E+000	-5.52400E-001	9.97822E-004	4	..........a	-327.66
	99	20	-5.22223E-001	-2.91888E-010	0.00000E+000	-5.22400E-001	9.86822E-004	4	..........a	-327.66
	102	20.6	-4.92151E-001	-1.87406E-010	0.00000E+000	-4.92400E-001	1.00132E-003	4	..........a	-327.66
	105	21.2	-4.62291E-001	-1.10175E-010	0.00000E+000	-4.62400E-001	9.86922E-004	4	..........a	-327.66
	108	21.8	-4.32314E-001	-5.13662E-011	0.00000E+000	-4.32400E-001	1.00632E-003	4	..........a	-327.66
	111	22.4	-4.02299E-001	-5.29140E-012	0.00000E+000	-4.02400E-001	9.90022E-004	4	..........a	-327.66
	114	23	-3.72277E-001	3.30561E-011	0.00000E+000	-3.72400E-001	9.86322E-004	4	..........a	-327.66
	117	23.6	-3.42340E-001	5.98051E-011	0.00000E+000	-3.42400E-001	9.89622E-004	4	..........a	-327.66
	120	24.2	-3.12326E-001	8.47081E-011	0.00000E+000	-3.12400E-001	1.01062E-003	4	..........a	-327.66
	123	24.8	-2.82335E-001	1.02187E-010	0.00000E+000	-2.82400E-001	9.88722E-004	4	..........a	-327.66
	126	25.4	-2.52285E-001	1.16694E-010	0.00000E+000	-2.52400E-001	9.92422E-004	4	..........a	-327.66
	129	26	-2.22315E-001	1.26976E-010	0.00000E+000	-2.22400E-001	9.83922E-004	4	..........a	-327.66
	132	26.6	-1.92351E-001	1.33697E-010	0.00000E+000	-1.92400E-001	1.00402E-003	4	..........a	-327.66
	135	27.2	-1.62341E-001	1.36280E-010	0.00000E+000	-1.62400E-001	1.00022E-003	4	..........a	-327.66
	138	27.8	-1.32305E-001	1.36966E-010	0.00000E+000	-1.32400E-001	1.00902E-003	4	..........a	-327.66
	141	28.4	-1.02351E-001	1.36539E-010	0.00000E+000	-1.02400E-001	9.91222E-004	4	..........a	-327.66
	144	29	-7.23306E-002	1.35861E-010	0.00000E+000	-7.24000E-002	1.01162E-003	4	..........a	-327.66
	147	29.6	-4.23037E-002	1.34707E-010	0.00000E+000	-4.24000E-002	1.00192E-003	4	..........a	-327.66
	150	30.2	-1.22352E-002	1.33187E-010	0.00000E+000	-1.24000E-002	9.80422E-004	4	..........a	-327.66
	153	30.8	1.76464E-002	1.31432E-010	0.00000E+000	1.76000E-002	1.02772E-003	4	..........a	-327.66
	156	31.4	4.75906E-002	1.29894E-010	0.00000E+000	4.76000E-002	9.92222E-004	4	..........a	-327.66
	159	32	7.76539E-002	1.29424E-010	0.00000E+000	7.76000E-002	1.00632E-003	4	..........a	-327.66
	162	32.6	1.07659E-001	1.29496E-010	0.00000E+000	1.07600E-001	9.93522E-004	4	..........a	-327.66
	165	33.2	1.37673E-001	1.29920E-010	0.00000E+000	1.37600E-001	1.00952E-003	4	..........a	-327.66
	168	33.8	1.67625E-001	1.33314E-010	0.00000E+000	1.67600E-001	9.94322E-004	4	..........a	-327.66
	171	34.4	1.97670E-001	1.37814E-010	0.00000E+000	1.97600E-001	1.00102E-003	4	..........a	-327.66
	174	35	2.27618E-001	1.41811E-010	0.00000E+000	2.27600E-001	9.98922E-004	4	..........a	-327.66
	177	35.6	2.57632E-001	1.49227E-010	0.00000E+000	2.57600E-001	9.85022E-004	4	..........a	-327.66
	180	36.2	2.87617E-001	1.54562E-010	0.00000E+000	2.87600E-001	9.97322E-004	4	..........a	-327.66
	183	36.8	3.17677E-001	1.63930E-010	0.00000E+000	3.17600E-001	9.98922E-004	4	..........a	-327.66
	186	37.4	3.47061E-001	1.70439E-010	0.00000E+000	3.47600E-001	9.89222E-004	4	..........a	-327.66
	189	38	3.77566E-001	1.79861E-010	0.00000E+000	3.77600E-001	9.99422E-004	4	..........a	-327.66
	192	38.6	4.07549E-001	1.89945E-010	0.00000E+000	4.07600E-001	9.98322E-004	4	..........a	-327.66
	195	39.2	4.37625E-001	1.99408E-010	0.00000E+000	4.37600E-001	1.01632E-003	4	..........a	-327.66
	198	39.8	4.67580E-001	2.09832E-010	0.00000E+000	4.67600E-001	9.82922E-004	4	..........a	-327.66
	201	40.4	4.97579E-001	2.21643E-010	0.00000E+000	4.97600E-001	9.96722E-004	4	..........a	-327.66
	204	41	5.27546E-001	2.38034E-010	0.00000E+000	5.27600E-001	1.00902E-003	4	..........a	-327.66
	207	41.6	5.57527E-001	2.56232E-010	0.00000E+000	5.57600E-001	9.93122E-004	4	..........a	-327.66
	210	42.2	5.87537E-001	2.76817E-010	0.00000E+000	5.87600E-001	1.00222E-003	4	..........a	-327.66
	213	42.8	6.17464E-001	3.00273E-010	0.00000E+000	6.17600E-001	1.02072E-003	4	..........a	-327.66
	216	43.4	6.47515E-001	3.25775E-010	0.00000E+000	6.47600E-001	9.92222E-004	4	..........a	-327.66
	219	44	6.77567E-001	3.51239E-010	0.00000E+000	6.77600E-001	1.00842E-003	4	..........a	-327.66
	222	44.6	7.07543E-001	3.76390E-010	0.00000E+000	7.07600E-001	9.83222E-004	4	..........a	-327.66
	225	45.2	7.37563E-001	4.07149E-010	0.00000E+000	7.37600E-001	9.96722E-004	4	..........a	-327.66
	228	45.8	7.67515E-001	4.49003E-010	0.00000E+000	7.67600E-001	1.00232E-003	4	..........a	-327.66
	231	46.4	7.97604E-001	5.04332E-010	0.00000E+000	7.97600E-001	1.01902E-003	4	..........a	-327.66
CURVE2	TABLE
	Pt	T	Vf	Im	Vu	Sig	Ach	IERange	Over	Temp
	#	s	V vs. Ref.	A	V	V	V	#	bits	deg C
	232	46.6	7.89911E-001	3.89181E-010	0.00000E+000	7.90000E-001	9.84622E-004	4	..........a	-327.66
	235	47.2	7.59971E-001	1.98958E-010	0.00000E+000	7.60000E-001	1.00912E-003	4	..........a	-327.66
	238	47.8	7.29872E-001	1.13645E-010	0.00000E+000	7.30000E-001	9.94322E-004	4	..........a	-327.66
	241	48.4	6.99987E-001	6.38363E-011	0.00000E+000	7.00000E-001	9.97622E-004	4	..........a	-327.66
	244	49	6.69915E-001	2.98049E-011	0.00000E+000	6.70000E-001	9.90322E-004	4	..........a	-327.66
	247	49.6	6.39946E-001	7.77910E-012	0.00000E+000	6.40000E-001	9.89922E-004	4	..........a	-327.66
	250	50.2	6.09969E-001	-1.02046E-011	0.00000E+000	6.10000E-001	9.93722E-004	4	..........a	-327.66
	253	50.8	5.80000E-001	-2.66882E-011	0.00000E+000	5.80000E-001	9.99022E-004	4	..........a	-327.66
	256	51.4	5.49983E-001	-3.89437E-011	0.00000E+000	5.50000E-001	9.87722E-004	4	..........a	-327.66
	259	52	5.19980E-001	-5.08172E-011	0.00000E+000	5.20000E-001	9.86322E-004	4	..........a	-327.66
	262	52.6	4.89961E-001	-6.02555E-011	0.00000E+000	4.90000E-001	9.83122E-004	4	..........a	-327.66
	265	53.2	4.60021E-001	-6.88578E-011	0.00000E+000	4.60000E-001	9.97422E-004	4	..........a	-327.66
	268	53.8	4.29913E-001	-7.75752E-011	0.00000E+000	4.30000E-001	9.93622E-004	4	..........a	-327.66
	271	54.4	3.99965E-001	-8.53945E-011	0.00000E+000	4.00000E-001	1.00862E-003	4	..........a	-327.66
	274	55	3.70002E-001	-9.29028E-011	0.00000E+000	3.70000E-001	9.84922E-004	4	..........a	-327.66
	277	55.6	3.40058E-001	-1.00041E-010	0.00000E+000	3.40000E-001	1.00772E-003	4	..........a	-327.66
	280	56.2	3.09987E-001	-1.06591E-010	0.00000E+000	3.10000E-001	1.00022E-003	4	..........a	-327.66
	283	56.8	2.80002E-001	-1.13974E-010	0.00000E+000	2.80000E-001	9.75822E-004	4	..........a	-327.66
	286	57.4	2.50088E-001	-1.19067E-010	0.00000E+000	2.50000E-001	1.00692E-003	4	..........a	-327.66
	289	58	2.20008E-001	-1.23932E-010	0.00000E+000	2.20000E-001	9.96522E-004	4	..........a	-327.66
	292	58.6	1.90024E-001	-1.26919E-010	0.00000E+000	1.90000E-001	1.00902E-003	4	..........a	-327.66
	295	59.2	1.60038E-001	-1.27878E-010	0.00000E+000	1.60000E-001	1.00632E-003	4	..........a	-327.66
	298	59.8	1.30056E-001	-1.29525E-010	0.00000E+000	1.30000E-001	9.75622E-004	4	..........a	-327.66
	301	60.4	1.00005E-001	-1.29652E-010	0.00000E+000	1.00000E-001	1.00622E-003	4	..........a	-327.66
	304	61	6.99627E-002	-1.30354E-010	0.00000E+000	7.00000E-002	1.00662E-003	4	..........a	-327.66
	307	61.6	3.99300E-002	-1.36304E-010	0.00000E+000	4.00000E-002	9.79822E-004	4	..........a	-327.66
	310	62.2	1.00664E-002	-1.42171E-010	0.00000E+000	1.00000E-002	9.84222E-004	4	..........a	-327.66
	313	62.8	-1.99333E-002	-1.50483E-010	0.00000E+000	-2.00000E-002	9.81522E-004	4	..........a	-327.66
	316	63.4	-5.00357E-002	-1.61105E-010	0.00000E+000	-5.00000E-002	9.73022E-004	4	..........a	-327.66
	319	64	-7.99666E-002	-1.73645E-010	0.00000E+000	-8.00000E-002	9.78922E-004	4	..........a	-327.66
	322	64.6	-1.09940E-001	-1.87781E-010	0.00000E+000	-1.10000E-001	9.82522E-004	4	..........a	-327.66
	325	65.2	-1.39980E-001	-2.04244E-010	0.00000E+000	-1.40000E-001	1.01962E-003	4	..........a	-327.66
	328	65.8	-1.69975E-001	-2.21226E-010	0.00000E+000	-1.70000E-001	9.99222E-004	4	..........a	-327.66
	331	66.4	-1.99944E-001	-2.40526E-010	0.00000E+000	-2.00000E-001	9.99722E-004	4	..........a	-327.66
	334	67	-2.29899E-001	-2.63389E-010	0.00000E+000	-2.30000E-001	9.93722E-004	4	..........a	-327.66
	337	67.6	-2.59875E-001	-2.91874E-010	0.00000E+000	-2.60000E-001	9.75722E-004	4	..........a	-327.66
	340	68.2	-2.89908E-001	-3.23109E-010	0.00000E+000	-2.90000E-001	1.00022E-003	4	..........a	-327.66
	343	68.8	-3.19831E-001	-3.49931E-010	0.00000E+000	-3.20000E-001	9.87722E-004	4	..........a	-327.66
	346	69.4	-3.49878E-001	-3.85401E-010	0.00000E+000	-3.50000E-001	9.80222E-004	4	..........a	-327.66
	349	70	-3.79854E-001	-4.24752E-010	0.00000E+000	-3.80000E-001	1.01062E-003	4	..........a	-327.66
	352	70.6	-4.09873E-001	-4.66977E-010	0.00000E+000	-4.10000E-001	9.97422E-004	4	..........a	-327.66
	355	71.2	-4.39903E-001	-5.14310E-010	0.00000E+000	-4.40000E-001	1.00242E-003	4	..........a	-327.66
	358	71.8	-4.69833E-001	-5.68210E-010	0.00000E+000	-4.70000E-001	9.82622E-004	4	..........a	-327.66
	361	72.4	-4.99868E-001	-6.32913E-010	0.00000E+000	-5.00000E-001	1.00962E-003	4	..........a	-327.66
[...]
	963	192.8	-2.79935E-001	6.14992E-011	0.00000E+000	-2.80000E-001	9.98022E-004	4	..........a	-327.66
	966	193.4	-2.49933E-001	9.30214E-011	0.00000E+000	-2.50000E-001	9.94922E-004	4	..........a	-327.66
	969	194	-2.19875E-001	1.19944E-010	0.00000E+000	-2.20000E-001	9.74222E-004	4	..........a	-327.66
	972	194.6	-1.90098E-001	1.35393E-010	0.00000E+000	-1.90000E-001	9.76422E-004	4	..........a	-327.66
	975	195.2	-1.59940E-001	1.46465E-010	0.00000E+000	-1.60000E-001	9.78922E-004	4	..........a	-327.66
	978	195.8	-1.30065E-001	1.54970E-010	0.00000E+000	-1.30000E-001	9.96122E-004	4	..........a	-327.66
	981	196.4	-9.99064E-002	1.52925E-010	0.00000E+000	-1.00000E-001	1.00872E-003	4	..........a	-327.66
	984	197	-6.99182E-002	1.52095E-010	0.00000E+000	-7.00000E-002	9.79022E-004	4	..........a	-327.66
	987	197.6	-3.99385E-002	1.56844E-010	0.00000E+000	-4.00000E-002	9.90922E-004	4	..........a	-327.66
	990	198.2	-9.94866E-003	1.49831E-010	0.00000E+000	-1.00000E-002	9.65922E-004	4	..........a	-327.66
	993	198.8	2.00435E-002	1.49114E-010	0.00000E+000	2.00000E-002	9.79722E-004	4	..........a	-327.66
	996	199.4	5.00276E-002	1.46691E-010	0.00000E+000	5.00000E-002	9.83122E-004	4	..........a	-327.66
	999	200	8.00678E-002	1.46526E-010	0.00000E+000	8.00000E-002	9.83422E-004	4	..........a	-327.66
	1002	200.6	1.10019E-001	1.51660E-010	0.00000E+000	1.10000E-001	1.01052E-003	4	..........a	-327.66
	1005	201.2	1.40097E-001	1.59109E-010	0.00000E+000	1.40000E-001	9.94322E-004	4	..........a	-327.66
	1008	201.8	1.70090E-001	1.59888E-010	0.00000E+000	1.70000E-001	9.78922E-004	4	..........a	-327.66
	1011	202.4	2.00063E-001	1.69814E-010	0.00000E+000	2.00000E-001	9.94322E-004	4	..........a	-327.66
	1014	203	2.29907E-001	1.84456E-010	0.00000E+000	2.30000E-001	9.89222E-004	4	..........a	-327.66
	1017	203.6	2.60028E-001	1.92180E-010	0.00000E+000	2.60000E-001	1.00222E-003	4	..........a	-327.66
	1020	204.2	2.90016E-001	2.01440E-010	0.00000E+000	2.90000E-001	9.83322E-004	4	..........a	-327.66
	1023	204.8	3.20018E-001	2.09509E-010	0.00000E+000	3.20000E-001	9.80922E-004	4	..........a	-327.66
	1026	205.4	3.50028E-001	2.16671E-010	0.00000E+000	3.50000E-001	9.94722E-004	4	..........a	-327.66
	1029	206	3.80035E-001	2.19538E-010	0.00000E+000	3.80000E-001	9.85622E-004	4	..........a	-327.66
	1032	206.6	4.09993E-001	2.22801E-010	0.00000E+000	4.10000E-001	9.85422E-004	4	..........a	-327.66
	1035	207.2	4.39962E-001	2.25418E-010	0.00000E+000	4.40000E-001	1.00522E-003	4	..........a	-327.66
	1038	207.8	4.69967E-001	2.28237E-010	0.00000E+000	4.70000E-001	9.87522E-004	4	..........a	-327.66
	1041	208.4	4.99992E-001	2.33270E-010	0.00000E+000	5.00000E-001	1.00192E-003	4	..........a	-327.66
	1044	209	5.29986E-001	2.37939E-010	0.00000E+000	5.30000E-001	9.84622E-004	4	..........a	-327.66
	1047	209.6	5.59879E-001	2.45704E-010	0.00000E+000	5.60000E-001	9.89122E-004	4	..........a	-327.66
	1050	210.2	5.89894E-001	2.54502E-010	0.00000E+000	5.90000E-001	9.83522E-004	4	..........a	-327.66
	1053	210.8	6.19983E-001	2.65917E-010	0.00000E+000	6.20000E-001	9.89022E-004	4	..........a	-327.66
	1056	211.4	6.49938E-001	2.81622E-010	0.00000E+000	6.50000E-001	9.80922E-004	4	..........a	-327.66
	1059	212	6.79970E-001	3.00732E-010	0.00000E+000	6.80000E-001	9.98722E-004	4	..........a	-327.66
	1062	212.6	7.09877E-001	3.25524E-010	0.00000E+000	7.10000E-001	9.71722E-004	4	..........a	-327.66
	1065	213.2	7.40010E-001	3.60403E-010	0.00000E+000	7.40000E-001	9.96622E-004	4	..........a	-327.66
	1068	213.8	7.69919E-001	4.07468E-010	0.00000E+000	7.70000E-001	9.83622E-004	4	..........a	-327.66
	1071	214.4	7.99953E-001	4.73620E-010	0.00000E+000	8.00000E-001	1.00472E-003	4	..........a	-327.66
CURVE5	TABLE
	Pt	T	Vf	Im	Vu	Sig	Ach	IERange	Over	Temp
	#	s	V vs. Ref.	A	V	V	V	#	bits	deg C
	1072	214.6	7.89864E-001	3.39288E-010	0.00000E+000	7.90000E-001	9.84522E-004	4	..........a	-327.66
	1073	214.8	7.79972E-001	2.58278E-010	0.00000E+000	7.80000E-001	9.75122E-004	4	..........a	-327.66
	1074	215	7.69963E-001	2.01532E-010	0.00000E+000	7.70000E-001	9.79822E-004	4	..........a	-327.66
	1075	215.2	7.59925E-001	1.58794E-010	0.00000E+000	7.60000E-001	9.91622E-004	4	..........a	-327.66
	1076	215.4	7.49879E-001	1.27826E-010	0.00000E+000	7.50000E-001	9.76422E-004	4	..........a	-327.66
	1077	215.6	7.40013E-001	1.01703E-010	0.00000E+000	7.40000E-001	1.00032E-003	4	..........a	-327.66
	1078	215.8	7.29858E-001	8.02499E-011	0.00000E+000	7.30000E-001	9.82522E-004	4	..........a	-327.66
	1079	216	7.19883E-001	6.10251E-011	0.00000E+000	7.20000E-001	9.96722E-004	4	..........a	-327.66
	1080	216.2	7.09859E-001	4.75996E-011	0.00000E+000	7.10000E-001	9.86122E-004	4	..........a	-327.66
	1081	216.4	6.99935E-001	3.53262E-011	0.00000E+000	7.00000E-001	9.60722E-004	4	..........a	-327.66
	1082	216.6	6.89901E-001	2.52058E-011	0.00000E+000	6.90000E-001	9.73422E-004	4	..........a	-327.66
	1083	216.8	6.79792E-001	1.39313E-011	0.00000E+000	6.80000E-001	9.65722E-004	4	..........a	-327.66
	1084	217	6.69895E-001	5.92503E-012	0.00000E+000	6.70000E-001	9.68922E-004	4	..........a	-327.66
	1085	217.2	6.59988E-001	-2.42929E-012	0.00000E+000	6.60000E-001	9.76322E-004	4	..........a	-327.66
	1086	217.4	6.49931E-001	-7.69750E-012	0.00000E+000	6.50000E-001	9.54522E-004	4	..........a	-327.66
	1087	217.6	6.39819E-001	-1.40807E-011	0.00000E+000	6.40000E-001	9.96922E-004	4	..........a	-327.66
	1088	217.8	6.29919E-001	-1.97990E-011	0.00000E+000	6.30000E-001	9.79622E-004	4	..........a	-327.66
	1089	218	6.20004E-001	-2.41371E-011	0.00000E+000	6.20000E-001	1.00132E-003	4	..........a	-327.66
	1090	218.2	6.09958E-001	-3.00524E-011	0.00000E+000	6.10000E-001	9.56022E-004	4	..........a	-327.66
	1091	218.4	5.99964E-001	-3.50455E-011	0.00000E+000	6.00000E-001	9.83522E-004	4	..........a	-327.66
	1092	218.6	5.89964E-001	-3.75826E-011	0.00000E+000	5.90000E-001	9.70622E-004	4	..........a	-327.66
	1093	218.8	5.80045E-001	-4.06498E-011	0.00000E+000	5.80000E-001	9.90322E-004	4	..........a	-327.66
	1094	219	5.69934E-001	-4.52019E-011	0.00000E+000	5.70000E-001	9.77122E-004	4	..........a	-327.66
	1095	219.2	5.59997E-001	-4.89541E-011	0.00000E+000	5.60000E-001	9.79022E-004	4	..........a	-327.66
	1096	219.4	5.49959E-001	-5.20452E-011	0.00000E+000	5.50000E-001	9.66722E-004	4	..........a	-327.66
	1097	219.6	5.40027E-001	-5.49003E-011	0.00000E+000	5.40000E-001	9.97322E-004	4	..........a	-327.66
	1098	219.8	5.29972E-001	-5.83224E-011	0.00000E+000	5.30000E-001	9.90622E-004	4	..........a	-327.66
	1099	220	5.19955E-001	-6.16116E-011	0.00000E+000	5.20000E-001	9.82822E-004	4	..........a	-327.66
	1100	220.2	5.09924E-001	-6.53417E-011	0.00000E+000	5.10000E-001	9.93922E-004	4	..........a	-327.66
	1101	220.4	5.00035E-001	-6.86118E-011	0.00000E+000	5.00000E-001	9.78522E-004	4	..........a	-327.66
	1102	220.6	4.89970E-001	-7.20190E-011	0.00000E+000	4.90000E-001	9.71922E-004	4	..........a	-327.66
	1103	220.8	4.79918E-001	-7.48981E-011	0.00000E+000	4.80000E-001	9.91022E-004	4	..........a	-327.66
	1104	221	4.69946E-001	-7.76002E-011	0.00000E+000	4.70000E-001	9.87222E-004	4	..........a	-327.66
	1105	221.2	4.60015E-001	-8.04543E-011	0.00000E+000	4.60000E-001	9.88522E-004	4	..........a	-327.66
	1106	221.4	4.49994E-001	-8.43854E-011	0.00000E+000	4.50000E-001	9.83822E-004	4	..........a	-327.66
	1107	221.6	4.39951E-001	-8.74066E-011	0.00000E+000	4.40000E-001	9.96122E-004	4	..........a	-327.66
	1108	221.8	4.29949E-001	-8.99037E-011	0.00000E+000	4.30000E-001	9.85322E-004	4	..........a	-327.66
	1109	222	4.20014E-001	-9.30908E-011	0.00000E+000	4.20000E-001	9.85422E-004	4	..........a	-327.66
	1110	222.2	4.09895E-001	-9.66089E-011	0.00000E+000	4.10000E-001	9.77822E-004	4	..........a	-327.66
	1111	222.4	4.00056E-001	-1.00342E-010	0.00000E+000	4.00000E-001	9.83022E-004	4	..........a	-327.66
	1112	222.6	3.89999E-001	-1.02875E-010	0.00000E+000	3.90000E-001	9.93422E-004	4	..........a	-327.66
	1113	222.8	3.80028E-001	-1.05100E-010	0.00000E+000	3.80000E-001	9.91522E-004	4	..........a	-327.66
	1114	223	3.69992E-001	-1.08450E-010	0.00000E+000	3.70000E-001	9.84622E-004	4	..........a	-327.66
	1115	223.2	3.60007E-001	-1.12213E-010	0.00000E+000	3.60000E-001	9.93022E-004	4	..........a	-327.66
	1116	223.4	3.49958E-001	-1.15186E-010	0.00000E+000	3.50000E-001	9.79522E-004	4	..........a	-327.66
	1117	223.6	3.40048E-001	-1.17906E-010	0.00000E+000	3.40000E-001	9.89722E-004	4	..........a	-327.66
	1118	223.8	3.30051E-001	-1.20934E-010	0.00000E+000	3.30000E-001	9.94822E-004	4	..........a	-327.66
	1119	224	3.19998E-001	-1.23206E-010	0.00000E+000	3.20000E-001	1.00082E-003	4	..........a	-327.66
	1120	224.2	3.09965E-001	-1.26177E-010	0.00000E+000	3.10000E-001	9.92722E-004	4	..........a	-327.66